File: data/xrd/xy/1,4_Benzene_Diammonium_Iodide.lbl_rescaled.xy
# Processed xy data with Haverford two-theta converted to LBL scale
two_theta,intensity
5.81234,5.0
6.06814,3.0
6.32395,4.0
6.57977,7.0
6.8356,6.0
7.09144,4.0
7.34728,7.0
7.60314,7.0
7.85901,5.0
8.11488,4.0
8.37077,3.0
8.62667,5.0
8.88257,8.0
9.1385,5.0
9.39443,3.0
9.65037,8.0
9.90633,3.0
10.1623,4.0
10.4183,10.0
10.6743,26.0
10.9303,6.0
11.1863,3.0
11.4424,6.0
11.6984,3.0
11.9545,3.0
12.2106,7.0
12.4667,4.0
12.7228,3.0
12.9789,3.0
13.2351,1.0
13.4912,4.0
13.7474,3.0
14.0036,6.0
14.2599,6.0
14.5161,2.0
14.7724,3.0
15.0287,5.0
15.285,1.0
15.5413,4.0
15.7976,5.0
16.054,5.0
16.3104,0.0
16.5668,2.0
16.8232,2.0
17.0797,3.0
17.3361,3.0
17.5926,6.0
17.8491,7.0
18.1057,2.0
18.3623,3.0
18.6188,5.0
18.8755,5.0
19.1321,3.0
19.3888,5.0
19.6455,1.0
19.9022,5.0
20.1589,4.0
20.4157,2.0
20.6725,5.0
20.9294,5.0
21.1862,11.0
21.4431,14.0
21.7,1.0
21.957,1.0
22.2139,3.0
22.4709,3.0
22.728,1.0
22.9851,4.0
23.2422,5.0
23.4993,3.0
23.7564,2.0
24.0136,4.0
24.2709,3.0
24.5281,3.0
24.7854,4.0
25.0428,5.0
25.3001,1.0
25.5575,7.0
25.815,26.0
26.0724,166.0
26.3299,13.0
26.5875,3.0
26.8451,4.0
27.1027,3.0
27.3603,2.0
27.618,3.0
27.8758,2.0
28.1335,0.0
28.3913,3.0
28.6492,4.0
28.9071,12.0
29.165,89.0
29.423,33.0
29.681,8.0
29.9391,1.0
30.1972,4.0
30.4553,3.0
30.7135,7.0
30.9717,24.0
31.23,24.0
31.4883,4.0
31.7467,10.0
32.0051,55.0
32.2635,10.0
32.522,3.0
32.7806,4.0
33.0392,7.0
33.2978,6.0
33.5565,19.0
33.8153,65.0
34.0741,7.0
34.3329,4.0
34.5918,3.0
34.8507,7.0
35.1097,3.0
35.3688,3.0
35.6279,3.0
35.887,1.0
36.1462,8.0
36.4055,20.0
36.6648,3.0
36.9241,1.0
37.1836,0.0
37.443,4.0
37.7026,1.0
37.9621,2.0
38.2218,1.0
38.4815,1.0
38.7412,3.0
39.0011,4.0
39.2609,4.0
39.5209,7.0
39.7809,1.0
40.0409,2.0
40.3011,0.0
40.5612,2.0
40.8215,2.0
41.0818,4.0
41.3421,4.0
41.6026,68.0
41.8631,18.0
42.1236,4.0
42.3843,2.0
42.645,4.0
42.9057,20.0
43.1665,48.0
43.4274,8.0
43.6884,41.0
43.9494,75.0
44.2105,4.0
44.4717,7.0
44.733,2.0
44.9943,1.0
45.2557,4.0
45.5171,2.0
45.7786,3.0
46.0403,3.0
46.3019,3.0
46.5637,2.0
46.8255,4.0
47.0874,17.0
47.3494,15.0
47.6115,3.0
47.8736,2.0
48.1358,4.0
48.3981,2.0
48.6605,4.0
48.923,5.0
49.1855,3.0
49.4481,3.0
49.7108,53.0
49.9736,37.0
50.2365,4.0
50.4994,4.0
50.7625,2.0
51.0256,3.0
51.2888,3.0
51.5521,4.0
51.8155,4.0
52.079,4.0
52.3426,3.0
52.6062,7.0
52.87,26.0
53.1338,9.0
53.3978,63.0
53.6618,11.0
53.9259,7.0
54.1901,4.0
54.4545,18.0
54.7189,43.0
54.9834,5.0
55.248,4.0
55.5127,3.0
55.7775,5.0
56.0424,5.0
56.3074,4.0
56.5725,3.0
56.8377,2.0
57.103,3.0
57.3685,1.0
57.634,2.0
57.8996,4.0
58.1654,4.0
58.4312,2.0
58.6972,5.0
58.9632,2.0
59.2294,1.0
59.4957,4.0
59.7621,3.0
60.0286,4.0
60.2952,13.0
60.562,8.0
60.8288,4.0
61.0958,4.0
61.3629,31.0
61.6301,15.0
61.8974,4.0
62.1649,4.0
62.4325,3.0
62.7002,2.0
62.968,2.0
63.2359,2.0
63.504,2.0
63.7722,4.0
64.0405,4.0
64.309,8.0
64.5776,30.0
64.8463,16.0
65.1151,4.0
65.3841,3.0
65.6532,4.0
65.9225,4.0
66.1919,3.0
66.4614,4.0
66.7311,11.0
67.0009,12.0
67.2708,6.0
67.5409,11.0
67.8112,5.0
68.0815,5.0
68.3521,31.0
68.6227,11.0
68.8935,4.0
69.1645,6.0
69.4356,10.0
69.7069,20.0
69.9783,25.0
70.2499,11.0
70.5216,2.0
70.7935,6.0
71.0656,4.0
71.3378,6.0
71.6102,4.0
71.8827,3.0
72.1554,4.0
72.4283,6.0
72.7013,3.0
72.9745,3.0
73.2479,1.0
73.5214,2.0
73.7951,1.0
74.069,7.0
74.3431,14.0
74.6173,10.0
74.8917,2.0
75.1663,3.0
75.4411,2.0
75.7161,1.0
75.9912,6.0
76.2665,3.0
76.5421,6.0
76.8178,8.0
77.0937,9.0
77.3698,9.0
77.6461,6.0
77.9226,3.0
78.1992,4.0
78.4761,4.0
78.7532,2.0
79.0305,7.0
79.308,3.0
79.5857,12.0
79.8636,20.0
80.1417,8.0
80.4201,5.0
80.6986,4.0
80.9774,3.0
81.2564,3.0
81.5356,6.0
81.815,22.0
82.0947,10.0
82.3746,7.0
82.6547,3.0
82.935,4.0
83.2156,3.0
83.4964,3.0
83.6241,4.0