File: data/xrd/xy/2-Pyrrolidin-1-ium-1-ylethylammonium_Bromide.lbl_rescaled.xy
# Processed xy data with Haverford two-theta converted to LBL scale
two_theta,intensity
5.81234,6.0
6.06814,9.0
6.32395,14.0
6.57977,8.0
6.8356,7.0
7.09144,85.0
7.34728,15.0
7.60314,7.0
7.85901,7.0
8.11488,5.0
8.37077,5.0
8.62667,8.0
8.88257,9.0
9.1385,1.0
9.39443,4.0
9.65037,4.0
9.90633,4.0
10.1623,2.0
10.4183,6.0
10.6743,5.0
10.9303,5.0
11.1863,9.0
11.4424,14.0
11.6984,25.0
11.9545,14.0
12.2106,8.0
12.4667,7.0
12.7228,4.0
12.9789,4.0
13.2351,5.0
13.4912,3.0
13.7474,6.0
14.0036,3.0
14.2599,5.0
14.5161,5.0
14.7724,5.0
15.0287,6.0
15.285,2.0
15.5413,6.0
15.7976,10.0
16.054,6.0
16.3104,5.0
16.5668,4.0
16.8232,5.0
17.0797,4.0
17.3361,11.0
17.5926,5.0
17.8491,4.0
18.1057,6.0
18.3623,4.0
18.6188,11.0
18.8755,11.0
19.1321,8.0
19.3888,3.0
19.6455,4.0
19.9022,4.0
20.1589,6.0
20.4157,6.0
20.6725,45.0
20.9294,21.0
21.1862,3.0
21.4431,5.0
21.7,5.0
21.957,4.0
22.2139,9.0
22.4709,4.0
22.728,21.0
22.9851,21.0
23.2422,13.0
23.4993,13.0
23.7564,4.0
24.0136,6.0
24.2709,8.0
24.5281,19.0
24.7854,8.0
25.0428,11.0
25.3001,8.0
25.5575,18.0
25.815,3.0
26.0724,14.0
26.3299,10.0
26.5875,32.0
26.8451,4.0
27.1027,4.0
27.3603,30.0
27.618,8.0
27.8758,3.0
28.1335,4.0
28.3913,6.0
28.6492,6.0
28.9071,12.0
29.165,30.0
29.423,143.0
29.681,31.0
29.9391,86.0
30.1972,9.0
30.4553,13.0
30.7135,14.0
30.9717,4.0
31.23,12.0
31.4883,13.0
31.7467,50.0
32.0051,29.0
32.2635,17.0
32.522,9.0
32.7806,7.0
33.0392,5.0
33.2978,28.0
33.5565,14.0
33.8153,37.0
34.0741,55.0
34.3329,16.0
34.5918,18.0
34.8507,15.0
35.1097,8.0
35.3688,14.0
35.6279,4.0
35.887,12.0
36.1462,4.0
36.4055,4.0
36.6648,7.0
36.9241,10.0
37.1836,7.0
37.443,22.0
37.7026,4.0
37.9621,6.0
38.2218,6.0
38.4815,1.0
38.7412,6.0
39.0011,12.0
39.2609,9.0
39.5209,4.0
39.7809,6.0
40.0409,8.0
40.3011,2.0
40.5612,7.0
40.8215,10.0
41.0818,8.0
41.3421,12.0
41.6026,8.0
41.8631,10.0
42.1236,4.0
42.3843,84.0
42.645,25.0
42.9057,31.0
43.1665,36.0
43.4274,8.0
43.6884,6.0
43.9494,4.0
44.2105,9.0
44.4717,26.0
44.733,15.0
44.9943,7.0
45.2557,7.0
45.5171,9.0
45.7786,13.0
46.0403,13.0
46.3019,61.0
46.5637,12.0
46.8255,7.0
47.0874,1.0
47.3494,5.0
47.6115,6.0
47.8736,16.0
48.1358,15.0
48.3981,9.0
48.6605,9.0
48.923,9.0
49.1855,6.0
49.4481,9.0
49.7108,9.0
49.9736,6.0
50.2365,6.0
50.4994,9.0
50.7625,8.0
51.0256,12.0
51.2888,16.0
51.5521,11.0
51.8155,11.0
52.079,6.0
52.3426,7.0
52.6062,5.0
52.87,10.0
53.1338,30.0
53.3978,40.0
53.6618,11.0
53.9259,8.0
54.1901,11.0
54.4545,6.0
54.7189,7.0
54.9834,17.0
55.248,3.0
55.5127,5.0
55.7775,6.0
56.0424,9.0
56.3074,9.0
56.5725,8.0
56.8377,9.0
57.103,10.0
57.3685,15.0
57.634,6.0
57.8996,8.0
58.1654,18.0
58.4312,15.0
58.6972,13.0
58.9632,16.0
59.2294,26.0
59.4957,9.0
59.7621,10.0
60.0286,6.0
60.2952,10.0
60.562,8.0
60.8288,19.0
61.0958,21.0
61.3629,9.0
61.6301,15.0
61.8974,15.0
62.1649,8.0
62.4325,7.0
62.7002,8.0
62.968,8.0
63.2359,15.0
63.504,5.0
63.7722,6.0
64.0405,3.0
64.309,7.0
64.5776,8.0
64.8463,6.0
65.1151,13.0
65.3841,8.0
65.6532,9.0
65.9225,9.0
66.1919,11.0
66.4614,14.0
66.7311,5.0
67.0009,7.0
67.2708,7.0
67.5409,5.0
67.8112,12.0
68.0815,5.0
68.3521,7.0
68.6227,4.0
68.8935,11.0
69.1645,8.0
69.4356,3.0
69.7069,6.0
69.9783,9.0
70.2499,4.0
70.5216,11.0
70.7935,11.0
71.0656,8.0
71.3378,11.0
71.6102,13.0
71.8827,10.0
72.1554,14.0
72.4283,12.0
72.7013,5.0
72.9745,10.0
73.2479,14.0
73.5214,6.0
73.7951,8.0
74.069,13.0
74.3431,8.0
74.6173,7.0
74.8917,9.0
75.1663,12.0
75.4411,9.0
75.7161,6.0
75.9912,11.0
76.2665,5.0
76.5421,10.0
76.8178,3.0
77.0937,13.0
77.3698,10.0
77.6461,3.0
77.9226,9.0
78.1992,7.0
78.4761,21.0
78.7532,11.0
79.0305,2.0
79.308,5.0
79.5857,1.0
79.8636,5.0
80.1417,8.0
80.4201,16.0
80.6986,9.0
80.9774,9.0
81.2564,8.0
81.5356,12.0
81.815,7.0
82.0947,6.0
82.3746,5.0
82.6547,8.0
82.935,5.0
83.2156,6.0
83.4964,7.0
83.6241,6.0