File: data/xrd/xy/2018-09-24T17_37_31.739860+00_00_LBL.xy
'Id: "" Comment: "Integrate frame perovskite0_01_001.gfrmwith cursor Wedge Cursor #1" Operator: "UC Berkeley" Anode: "Co" Scantype: "TwoTheta" TimePerStep: "300"
16.01 -0.036583
16.205 0.0171365
16.4 0.0337742
16.595 0.0253128
16.79 0.0370562
16.985 0.0127035
17.18 0.0301367
17.375 0.0393625
17.57 0.0280575
17.765 0.0370944
17.96 0.0458754
18.155 0.0627425
18.35 0.0365751
18.545 0.0387946
18.74 0.067999
18.935 0.0512362
19.13 0.040815
19.325 0.0337474
19.52 0.0385908
19.715 0.0452734
19.91 0.0557813
20.105 0.0725838
20.3 0.0566554
20.495 0.0309905
20.69 0.0128138
20.885 0.017119
21.08 0.0720529
21.275 0.0437263
21.47 0.0367292
21.665 0.0703001
21.86 0.0565433
22.055 0.0230807
22.25 0.0357021
22.445 -0.0167287
22.64 0.0464792
22.835 0.0344734
23.03 0.0396465
23.225 0.024685
23.42 0.0464533
23.615 0.0246912
23.81 0.0367926
24.005 0.0571926
24.2 0.0103038
24.395 0.0180099
24.59 0.00649566
24.785 0.0381349
24.98 0.0408425
25.175 0.0406477
25.37 0.022845
25.565 0.0583161
25.76 0.0291263
25.955 0.0297688
26.15 0.131014
26.345 0.138874
26.54 0.0544551
26.735 0.0144934
26.93 0.016503
27.125 -0.00195375
27.32 0.0073758
27.515 0.00877759
27.71 0.0198025
27.905 0.0746557
28.1 0.0423652
28.295 0.0320228
28.49 0.0338775
28.685 0.00784277
28.88 0.0180151
29.075 0.0528979
29.27 0.0344651
29.465 0.029635
29.66 0.0542618
29.855 0.0198027
30.05 0.0170776
30.245 0.000276004
30.44 0.0343572
30.635 0.231736
30.83 0.0994902
31.025 -0.00273768
31.22 0.0203435
31.415 0.00642743
31.61 0.0147616
31.805 0.038633
32 -0.00172455
32.195 0.0116474
32.39 -0.016185
32.585 0.0140195
32.78 0.0818922
32.975 0.0232421
33.17 0.000852181
33.365 0.01454
33.56 0.00529693
33.755 -0.00240929
33.95 -0.000881489
34.145 -0.00858835
34.34 -0.00141003
34.535 -0.00748524
34.73 -0.00673068
34.925 0.0110061
35.12 -0.000193915
35.315 -0.0140097
35.51 0.0326326
35.705 0.118396
35.9 0.0213433
36.095 -0.00473744
36.29 0.00362482
36.485 0.0270204
36.68 0.165957
36.875 0.171967
37.07 0.0251761
37.265 0.0137464
37.46 -0.00131855
37.655 -0.00482149
37.85 -0.0131372
38.045 -0.00784476
38.24 0.0671897
38.435 0.183493
38.63 0.043428
38.825 0.0129728
39.02 0.0030324
39.215 0.0129994
39.41 0.0199147
39.605 0.0269408
39.8 0.0194536
39.995 0.016436
40.19 0.00879487
40.385 0.0169371
40.58 0.0135683
40.775 -1.19957e-05
40.97 -0.000921862
41.165 -0.0107105
41.36 -0.00466966
41.555 -0.015707
41.75 0.00172777
41.945 0.0206334
42.14 0.0144216
42.335 0.00586209
42.53 0.0134285
42.725 -0.010954
42.92 -3.4233e-05
43.115 0.00913555
43.31 0.00153176
43.505 0.0118985
43.7 -0.00289521
43.895 -0.0142602
44.09 -0.00501971
44.285 0.00883408
44.48 0.000903401
44.675 0.0069776
44.87 -0.00370612
45.065 0.011901
45.26 0.00936985
45.455 -0.00111871
45.65 0.021237
45.845 0.0270932
46.04 0.00527029
46.235 0.00858364
46.43 0.00599965
46.625 0.0082665
46.82 0.0559852
47.015 0.201527
47.21 0.293015
47.405 0.0204915
47.6 0.006603
47.795 0.00182643
47.99 0.00724829
48.185 0.0144744
48.38 -0.00581225
48.575 0.0221694
48.77 0.149662
48.965 0.165559
49.16 0.0550209
49.355 0.00483847
49.55 0.000985864
49.745 0.00529387
49.94 0.102919
50.135 0.179731
50.33 0.0431577
50.525 0.0103137
50.72 -0.00108962
50.915 0.0428036
51.11 0.0377709
51.305 -0.0015733
51.5 -0.00396
51.695 -0.000136801
51.89 0.00311093
52.085 -0.0141307
52.28 -0.000129482
52.475 -0.00838542
52.67 0.0209529
52.865 0.0393128
53.06 0.0141458
53.255 0.00475159
53.45 0.00889539
53.645 0.00619903
53.84 0.0248664
54.035 -0.00363824
54.23 -0.0033537
54.425 -0.00678288
54.62 -0.000139133
54.815 0.0113457
55.01 0.006754
55.205 0.0211528
55.4 0.0131848
55.595 0.0181899
55.79 0.0451696
55.985 0.0269811
56.18 0.0208829
56.375 0.00895061
56.57 -0.00999997
56.765 -0.00333923
56.96 0.00774435
57.155 0.00345413
57.35 0.000427265
57.545 -0.00160045
57.74 0.0166405
57.935 0.0356901
58.13 0.253155
58.325 0.0763428
58.52 0.0705111
58.715 0.0861875
58.91 0.0394936
59.105 0.00885697
59.3 0.00857999
59.495 0.020061
59.69 0.00776801
59.885 0.0105434
60.08 -9.65003e-05
60.275 -0.00183269
60.47 -0.0030752
60.665 0.00136936
60.86 0.0203149
61.055 0.087294
61.25 0.0394931
61.445 0.0127332
61.64 0.0181503
61.835 0.00611165
62.03 0.00286724
62.225 0.0228621
62.42 0.0209289
62.615 0.0378514
62.81 0.0302414
63.005 0.0176994
63.2 -0.000330419
63.395 0.0152547
63.59 0.0504759
63.785 0.0854122
63.98 0.0406554
64.175 0.0144452
64.37 0.00469149
64.565 0.00251106
64.76 -0.0127116
64.955 0.0017858
65.15 0.0110024
65.345 -0.003278
65.54 0.0210054
65.735 -0.003052
65.93 0.0194742
66.125 0.0139925
66.32 0.00778946
66.515 0.0237695
66.71 0.0258647
66.905 0.0395229
67.1 0.0361752
67.295 0.0223084
67.49 -0.0050837
67.685 0.0211094
67.88 -0.0056085
68.075 0.00823039
68.27 0.000391731
68.465 0.0141296
68.66 0.038721
68.855 0.0278862
69.05 0.0284041
69.245 0.0121216
69.44 0.00744292
69.635 0.0174223
69.83 0.0136611
70.025 0.00541024
70.22 0.00819954
70.415 0.0107525
70.61 0.0203262
70.805 0.0123291
71 0.123906
71.195 0.0991235
71.39 0.0341237
71.585 0.0297303
71.78 0.0392653
71.975 -0.00964812
72.17 0.00114735
72.365 0.0185795
72.56 0.0565287
72.755 0.033903
72.95 -0.0117298
73.145 -0.00690839
73.195 -0.0146144