File: data/xrd/xy/2018-07-19T17_25_57.788230+00_00_LBL.xy
'Id: "" Comment: "Integrate frame Perovskite0_03_001.gfrmwith cursor Wedge Cursor #1" Operator: "UC Berkeley" Anode: "Co" Scantype: "TwoTheta" TimePerStep: "900"
14.21 -0.0166424
14.41 0.0276846
14.61 0.0441495
14.81 0.0349026
15.01 0.0536108
15.21 0.00486765
15.41 0.0225693
15.61 0.0212036
15.81 0.0322318
16.01 0.0319887
16.21 0.027175
16.41 0.0304532
16.61 0.0243901
16.81 0.0242094
17.01 0.0256554
17.21 0.0106703
17.41 0.0104318
17.61 0.0278833
17.81 0.0184433
18.01 0.00463976
18.21 0.06551
18.41 0.0357719
18.61 0.0252805
18.81 0.0203197
19.01 0.00797408
19.21 0.0247944
19.41 0.0136833
19.61 -0.00532709
19.81 0.0213683
20.01 0.0305948
20.21 0.0132861
20.41 0.0290762
20.61 0.0222632
20.81 0.0233013
21.01 0.00273511
21.21 -0.00218811
21.41 0.0152762
21.61 -0.00373429
21.81 0.0123153
22.01 0.0141427
22.21 0.0154553
22.41 0.0274984
22.61 0.0298896
22.81 0.0303878
23.01 0.022405
23.21 0.0426591
23.41 -0.00317367
23.61 0.020693
23.81 0.031873
24.01 0.0189393
24.21 0.0287696
24.41 0.0339152
24.61 0.0103247
24.81 0.0261695
25.01 0.0278358
25.21 0.0201802
25.41 0.024824
25.61 0.0825115
25.81 0.0411125
26.01 0.0852121
26.21 0.165973
26.41 0.192784
26.61 0.0700719
26.81 0.0356854
27.01 0.0237118
27.21 0.0257383
27.41 0.0238261
27.61 0.0185014
27.81 0.00784561
28.01 0.00356533
28.21 0.0179301
28.41 0.0143798
28.61 0.0174567
28.81 0.0926993
29.01 0.113092
29.21 0.191441
29.41 0.423378
29.61 0.146392
29.81 0.0689097
30.01 0.0683781
30.21 0.160209
30.41 0.0400138
30.61 0.0101931
30.81 0.0189775
31.01 0.00908885
31.21 -0.00999346
31.41 0.000759532
31.61 -0.000356714
31.81 0.0113476
32.01 -0.00620149
32.21 -0.00199812
32.41 -0.00376694
32.61 -0.00468093
32.81 0.00715977
33.01 0.00609917
33.21 -0.00630203
33.41 0.00900329
33.61 -0.00336844
33.81 0.0158118
34.01 0.0178024
34.21 0.0433699
34.41 0.159779
34.61 0.358278
34.81 0.0966975
35.01 0.0823068
35.21 0.0994111
35.41 0.0321791
35.61 0.0150009
35.81 0.0198644
36.01 0.00453746
36.21 0.00426936
36.41 0.0143783
36.61 0.0197539
36.81 0.0552022
37.01 0.235244
37.21 0.2716
37.41 0.0930689
37.61 0.0522929
37.81 0.0334102
38.01 0.00649973
38.21 0.00247507
38.41 0.0123315
38.61 0.00277117
38.81 0.00842859
39.01 0.0157717
39.21 0.0176477
39.41 0.0362102
39.61 0.0547045
39.81 0.0863208
40.01 0.116174
40.21 0.0514946
40.41 0.0139654
40.61 0.00941677
40.81 0.00369618
41.01 0.007209
41.21 0.0220818
41.41 0.00886004
41.61 0.0101116
41.81 0.00286313
42.01 -0.00314833
42.21 -0.00338034
42.41 -0.00302622
42.61 -0.00364436
42.81 -0.00388695
43.01 -0.0111309
43.21 -0.00339929
43.41 0.00853061
43.61 0.0138367
43.81 0.0394493
44.01 0.0849703
44.21 0.0558979
44.41 0.0236077
44.61 0.0160908
44.81 0.00649267
45.01 0.020512
45.21 0.0191433
45.41 0.0145081
45.61 0.0226074
45.81 0.0274308
46.01 0.090508
46.21 0.15234
46.41 0.111809
46.61 0.0992578
46.81 0.0719654
47.01 0.0366152
47.21 0.0363021
47.41 0.0471221
47.61 0.106059
47.81 0.0708421
48.01 0.0472816
48.21 0.0775633
48.41 0.0656614
48.61 0.0727457
48.81 0.0660994
49.01 0.0200121
49.21 0.0108199
49.41 -0.00225649
49.61 -0.00220976
49.81 -0.00232894
50.01 -0.00709031
50.21 0.00619384
50.41 0.00547997
50.61 0.00820775
50.81 -0.000187982
51.01 -0.00273535
51.21 0.00316021
51.41 -0.00179304
51.61 0.00661895
51.81 -0.00804941
52.01 -0.00848376
52.21 0.0064593
52.41 0.0165198
52.61 0.0465058
52.81 0.0601332
53.01 0.0362722
53.21 0.0143872
53.41 0.0182775
53.61 0.00367971
53.81 0.00772366
54.01 0.0126396
54.21 0.0156867
54.41 0.0535133
54.61 0.0797678
54.81 0.02549
55.01 0.00674441
55.21 0.0045313
55.41 0.00754617
55.61 0.0287086
55.81 0.0431649
56.01 0.0619122
56.21 0.0710336
56.41 0.0286518
56.61 0.00504878
56.81 0.00683182
57.01 0.00191678
57.21 -0.00420169
57.41 5.51763e-05
57.61 -0.00438258
57.81 0.00313349
58.01 -0.00273006
58.21 -0.00131157
58.41 -0.00107477
58.61 0.00243147
58.81 0.000736198
59.01 0.0143282
59.21 0.00738414
59.41 0.00200475
59.61 0.0165662
59.81 0.0160643
60.01 0.00808782
60.21 0.00748236
60.41 0.00975406
60.61 0.0142354
60.81 0.0106029
61.01 0.0235641
61.21 0.0237896
61.41 0.0302473
61.61 0.0279547
61.81 0.0187637
62.01 0.00135581
62.21 0.00912949
62.41 0.00735135
62.61 0.0145553
62.81 0.0235606
63.01 0.0154233
63.21 0.000824975
63.41 0.00340536
63.61 0.000621229
63.81 -0.00406191
64.01 -0.00247653
64.21 -0.00353017
64.41 6.50476e-05
64.61 0.0039508
64.81 0.0246056
65.01 0.0229115
65.21 0.0145422
65.41 -0.00330787
65.61 0.00616896
65.81 -0.00152106
66.01 0.00981317
66.21 0.000607044
66.41 0.013069
66.61 0.0199595
66.81 0.0141118
67.01 -0.000448716
67.21 0.00129462
67.41 0.00507587
67.61 0.00450359
67.81 -0.00569084
68.01 -0.00447865
68.21 0.00412223
68.41 0.0134697
68.61 0.0155268
68.81 0.0226081
69.01 0.0240121
69.21 0.031399
69.41 0.0345007
69.61 0.0183416
69.81 0.0165024
70.01 0.015762
70.21 0.00866907
70.41 -0.00547717
70.61 0.00739096
70.81 0.00440115
71.01 0.00408826
71.21 0.00746212
71.41 0.00714962
71.61 0.000631083
71.81 0.00341483
72.01 -0.00367785
72.21 0.00114123
72.41 0.0038711
72.61 0.0109363
72.81 0.0203236
73.01 0.0212416
73.21 0.0133134
73.4 -0.00873041