File: data/xrd/xy/2018-12-11T18_27_36.901478+00_00_LBL.xy
'Id: "" Comment: "Integrate frame iprodim_01_001.gfrmwith cursor Wedge Cursor #1" Operator: "UC Berkeley" Anode: "Co" Scantype: "TwoTheta" TimePerStep: "300"
13.995 -0.0374779
14.18 0.0499588
14.365 0.0289588
14.55 0.0338198
14.735 0.127598
14.92 0.0391501
15.105 0.012365
15.29 0.0686491
15.475 0.0482915
15.66 0.0723452
15.845 0.0692382
16.03 0.0523477
16.215 0.092801
16.4 0.0731799
16.585 0.0540784
16.77 0.104163
16.955 0.0912256
17.14 0.0884022
17.325 0.016613
17.51 0.0593175
17.695 0.0510482
17.88 0.0450612
18.065 0.0394513
18.25 0.0908783
18.435 0.0962754
18.62 0.096587
18.805 0.0554138
18.99 0.0666787
19.175 0.109197
19.36 0.0597675
19.545 0.0391087
19.73 0.0765405
19.915 0.0931903
20.1 0.110581
20.285 0.0739587
20.47 0.06411
20.655 0.0569859
20.84 0.0138238
21.025 0.00624529
21.21 0.0947474
21.395 0.0496365
21.58 0.0334201
21.765 0.110816
21.95 0.0360909
22.135 0.0206505
22.32 0.0471651
22.505 0.0432638
22.69 0.0421965
22.875 0.020649
23.06 0.010124
23.245 0.0408642
23.43 0.0594372
23.615 0.038054
23.8 -0.00178818
23.985 0.0311051
24.17 0.0387642
24.355 0.0574992
24.54 0.0284501
24.725 -0.00156071
24.91 0.0153265
25.095 0.0328994
25.28 0.0508893
25.465 0.0366013
25.65 0.0102179
25.835 0.0222162
26.02 0.038477
26.205 0.01365
26.39 -0.00511013
26.575 0.0280359
26.76 0.0301674
26.945 0.0169549
27.13 -0.0128795
27.315 0.0278325
27.5 0.0936006
27.685 0.0571129
27.87 0.0205812
28.055 0.032077
28.24 0.0194208
28.425 0.0317645
28.61 0.0579423
28.795 0.0500117
28.98 0.031291
29.165 0.0884908
29.35 0.331152
29.535 0.134397
29.72 0.0710223
29.905 0.0144684
30.09 0.0418889
30.275 0.0512929
30.46 0.0241271
30.645 0.0107564
30.83 0.0407938
31.015 0.019291
31.2 0.0308412
31.385 0.000480689
31.57 0.0259185
31.755 0.00114904
31.94 0.00264038
32.125 -0.0128105
32.31 0.0236782
32.495 0.0399754
32.68 0.0134459
32.865 0.0153102
33.05 0.0138621
33.235 -0.00907344
33.42 -0.0105528
33.605 0.0615133
33.79 0.477381
33.975 0.487025
34.16 0.0753857
34.345 0.0204322
34.53 0.00470081
34.715 -0.00156208
34.9 0.031285
35.085 0.0739427
35.27 0.0399544
35.455 0.00540576
35.64 0.0753633
35.825 0.0519065
36.01 0.0548071
36.195 0.0189415
36.38 0.011064
36.565 0.0121728
36.75 0.0147061
36.935 0.0437103
37.12 0.085313
37.305 0.0751002
37.49 0.0197975
37.675 0.0205001
37.86 0.0177991
38.045 0.00865771
38.23 -0.0178229
38.415 0.00180177
38.6 0.012365
38.785 0.0335219
38.97 0.00990766
39.155 -0.000825134
39.34 -0.00655596
39.525 0.0025899
39.71 0.0134652
39.895 0.0161762
40.08 0.0142172
40.265 -0.0109935
40.45 -0.0152915
40.635 0.00773833
40.82 -0.00454833
41.005 -0.00885094
41.19 0.00532286
41.375 -0.00474881
41.56 0.0057779
41.745 0.00739725
41.93 0.0287694
42.115 0.0281624
42.3 0.00433811
42.485 -0.00721381
42.67 0.0194387
42.855 -0.000728097
43.04 0.00667495
43.225 0.00439669
43.41 0.0450689
43.595 0.0484885
43.78 0.130312
43.965 0.101294
44.15 0.0441596
44.335 0.0462722
44.52 0.10234
44.705 0.12395
44.89 0.0453504
45.075 0.0328847
45.26 0.0212202
45.445 0.012357
45.63 0.0107882
45.815 0.0300475
46 -0.011308
46.185 0.014033
46.37 0.0157746
46.555 0.0161244
46.74 -0.00422398
46.925 0.0259421
47.11 0.0201636
47.295 0.0544562
47.48 0.0541283
47.665 0.133412
47.85 0.175816
48.035 0.0606505
48.22 0.0285502
48.405 0.0201975
48.59 0.0171497
48.775 0.0212064
48.96 0.0213374
49.145 0.018405
49.33 0.0371964
49.515 0.0290673
49.7 0.0264801
49.885 0.00923
50.07 0.00413021
50.255 0.00445677
50.44 -0.0164692
50.625 -0.00633201
50.81 -0.0171145
50.995 -0.0036559
51.18 -0.00590855
51.365 0.010987
51.55 0.00849083
51.735 -0.00845954
51.92 -0.00523837
52.105 -0.0121717
52.29 -0.00716993
52.475 -0.00437434
52.66 0.00754125
52.845 0.0175454
53.03 0.0182608
53.215 -0.00105372
53.4 -0.0196363
53.585 -0.00824168
53.77 0.0080445
53.955 0.00334256
54.14 0.0181746
54.325 0.0136408
54.51 0.0325197
54.695 0.0236899
54.88 0.0425618
55.065 0.0125445
55.25 0.0455719
55.435 0.0270059
55.62 0.0280571
55.805 0.00720568
55.99 0.0436924
56.175 0.0289045
56.36 0.0405588
56.545 0.0423638
56.73 0.0732489
56.915 0.122705
57.1 0.0275337
57.285 0.0271087
57.47 0.0205653
57.655 0.0202246
57.84 0.0239643
58.025 0.0245212
58.21 0.0208531
58.395 0.0027849
58.58 0.0164326
58.765 0.0113401
58.95 0.0271298
59.135 0.0188679
59.32 0.0225489
59.505 0.00942234
59.69 0.00556277
59.875 0.004945
60.06 0.00506117
60.245 -0.0173035
60.43 0.0159352
60.615 0.0148804
60.8 0.0211462
60.985 0.0233044
61.17 0.039441
61.355 0.0251401
61.54 0.00309851
61.725 0.0163917
61.91 0.0097257
62.095 -0.00587687
62.28 -0.000340291
62.465 0.00451659
62.65 0.00211773
62.835 0.00123388
63.02 0.00138042
63.205 0.0222759
63.39 -0.00245482
63.575 0.0148885
63.76 0.00430902
63.945 0.00504614
64.13 -0.00385621
64.315 0.010027
64.5 -0.0088308
64.685 0.00511042
64.87 0.000541225
65.055 -0.00120724
65.24 0.00149812
65.425 0.00337931
65.61 0.0535389
65.795 0.0514397
65.98 -0.00194433
66.165 0.00244311
66.35 0.00175973
66.535 0.00285776
66.72 -0.00430582
66.905 -0.0107565
67.09 0.00968999
67.275 -0.0117024
67.46 0.00279663
67.645 0.00619372
67.83 0.0529693
68.015 0.0789965
68.2 0.0343785
68.385 0.0113121
68.57 0.0107851
68.725 -0.0191496