File: data/xrd/xy/2018-08-28T17_28_06.885285+00_00_LBL.xy
'Id: "" Comment: "Integrate frame perovskite0_01_001.gfrmwith cursor Wedge Cursor #1" Operator: "UC Berkeley" Anode: "Co" Scantype: "TwoTheta" TimePerStep: "300"
13.735 -0.0360325
13.925 0.0371956
14.115 0.00829452
14.305 0.044737
14.495 0.119528
14.685 1.28355
14.875 0.48519
15.065 0.0135527
15.255 0.0796021
15.445 0.0363421
15.635 0.0350133
15.825 0.0788569
16.015 0.0702054
16.205 0.0627309
16.395 0.0926432
16.585 0.0650438
16.775 0.0586485
16.965 0.0532137
17.155 0.0272104
17.345 0.0629635
17.535 0.108271
17.725 0.0829709
17.915 0.0540044
18.105 0.0764773
18.295 0.00671215
18.485 0.0304911
18.675 0.0537902
18.865 0.0316879
19.055 0.0720234
19.245 0.0465205
19.435 0.116426
19.625 0.0705783
19.815 0.0761781
20.005 0.0401738
20.195 0.0992331
20.385 0.059822
20.575 0.0125192
20.765 0.0516763
20.955 0.03132
21.145 0.0764085
21.335 0.0915546
21.525 0.078131
21.715 0.07697
21.905 0.0643607
22.095 0.0529773
22.285 0.0137074
22.475 0.0441535
22.665 0.0628039
22.855 0.0403161
23.045 0.0217821
23.235 0.0378415
23.425 0.0654991
23.615 0.0374605
23.805 0.058228
23.995 0.0330479
24.185 0.0418801
24.375 0.0220305
24.565 0.0297575
24.755 0.0570754
24.945 0.0327083
25.135 0.0419156
25.325 0.0386163
25.515 0.057404
25.705 0.0344095
25.895 0.0365506
26.085 0.0226679
26.275 0.0871379
26.465 0.0589078
26.655 0.0532591
26.845 0.0444784
27.035 0.0229571
27.225 0.0705068
27.415 0.000182064
27.605 0.0329001
27.795 0.0625845
27.985 0.103124
28.175 0.0154256
28.365 0.0136129
28.555 0.00368932
28.745 0.0249885
28.935 0.00528122
29.125 0.0779312
29.315 0.0666412
29.505 0.0126084
29.695 0.165022
29.885 0.0323063
30.075 0.258901
30.265 0.264202
30.455 0.0194142
30.645 0.0372368
30.835 0.00309984
31.025 0.0415178
31.215 0.0196703
31.405 0.0150305
31.595 0.0414857
31.785 0.0116331
31.975 -0.0183648
32.165 -0.0103714
32.355 -0.00215598
32.545 0.0351046
32.735 0.0116581
32.925 0.0446602
33.115 0.023801
33.305 0.00437195
33.495 0.0101795
33.685 0.0493367
33.875 0.0398035
34.065 0.0493955
34.255 0.00640922
34.445 0.0566569
34.635 0.0559597
34.825 0.0373349
35.015 0.0257023
35.205 0.0459895
35.395 0.0239858
35.585 0.0291891
35.775 0.0274087
35.965 0.0153442
36.155 0.0242232
36.345 0.0055883
36.535 0.0145988
36.725 -1.18711e-05
36.915 -0.0199745
37.105 -0.00091066
37.295 0.0116845
37.485 0.0029706
37.675 -0.00436629
37.865 0.0184692
38.055 0.000920728
38.245 0.010109
38.435 -0.0176049
38.625 -0.00682646
38.815 0.00621759
39.005 -0.00697727
39.195 0.0056587
39.385 0.00864744
39.575 0.00615411
39.765 0.0234613
39.955 0.269345
40.145 0.179217
40.335 0.0366251
40.525 0.0252991
40.715 -0.00645929
40.905 -0.0171765
41.095 -0.00131285
41.285 -0.0150474
41.475 -0.0030622
41.665 0.00144879
41.855 -0.00699694
42.045 0.0157748
42.235 0.00649264
42.425 -0.0148168
42.615 0.012514
42.805 -0.00813552
42.995 0.0318769
43.185 -0.00113115
43.375 0.0250249
43.565 0.0321747
43.755 -0.00993277
43.945 0.051085
44.135 -0.00415736
44.325 0.0185209
44.515 0.0203215
44.705 0.0343469
44.895 0.0757172
45.085 0.294008
45.275 0.317164
45.465 0.0562112
45.655 0.0237005
45.845 0.0489296
46.035 0.112624
46.225 0.556314
46.415 0.220932
46.605 0.0541735
46.795 0.0284208
46.985 0.0225151
47.175 0.00185304
47.365 0.0035067
47.555 -0.00387215
47.745 0.00335066
47.935 0.0286621
48.125 -0.000165476
48.315 0.0122551
48.505 0.00426685
48.695 0.063473
48.885 0.0780124
49.075 0.013368
49.265 0.00730164
49.455 -0.00751895
49.645 -0.0047461
49.835 -0.00967423
50.025 0.00430982
50.215 -0.00409324
50.405 0.0125909
50.595 0.00703603
50.785 0.00545627
50.975 0.00728968
51.165 -0.00922186
51.355 0.00265987
51.545 -0.0126537
51.735 -0.00210708
51.925 -0.00756756
52.115 -0.00858299
52.305 0.0123854
52.495 0.0117121
52.685 0.0198644
52.875 0.0396934
53.065 0.0813053
53.255 0.0362123
53.445 -0.00863955
53.635 -0.00683325
53.825 0.00278133
54.015 0.0128034
54.205 0.0092301
54.395 0.0122352
54.585 -0.00548054
54.775 0.0104776
54.965 0.00629511
55.155 0.0195786
55.345 0.00775182
55.535 0.0197463
55.725 0.00311531
55.915 0.0319796
56.105 0.0711077
56.295 0.09233
56.485 0.0211341
56.675 0.0115978
56.865 -0.00126607
57.055 0.00726611
57.245 0.0140947
57.435 -0.00054624
57.625 0.00699585
57.815 0.0141393
58.005 0.0202413
58.195 0.0115388
58.385 0.0171714
58.575 0.0136566
58.765 0.0132007
58.955 -0.0083321
59.145 -0.0149753
59.335 0.0133253
59.525 -0.00262252
59.715 0.0125196
59.905 0.00178443
60.095 -0.00108951
60.285 -0.00616952
60.475 -0.00559498
60.665 0.00316173
60.855 0.0102443
61.045 0.0186783
61.235 0.00938665
61.425 0.074367
61.615 0.249945
61.805 0.142364
61.995 0.0327882
62.185 0.0118987
62.375 0.0203611
62.565 0.0536481
62.755 0.0975373
62.945 0.0590053
63.135 0.00749089
63.325 0.0185259
63.515 -0.00422026
63.705 0.000697913
63.895 0.00097962
64.085 0.00718419
64.275 0.00378278
64.465 0.0214856
64.655 0.00520066
64.845 0.0124035
65.035 0.018287
65.225 -0.00516255
65.415 -0.0119717
65.605 0.0143452
65.795 0.00989886
65.985 0.0127279
66.175 0.00983195
66.365 0.036092
66.555 0.105264
66.745 0.086164
66.935 0.0394357
67.125 0.014039
67.315 -0.00432869
67.505 -0.00500924
67.695 0.00497055
67.885 0.011642
68.075 0.0140314
68.265 0.0278666
68.455 -0.00196794
68.645 -0.0078482
68.835 0.00588796
69.025 -0.00285964
69.215 0.00407352
69.405 0.00262663
69.595 0.000821289
69.785 0.00569361
69.975 0.0033321
70.165 -0.00442024
70.29 -0.0155967