File: data/xrd/xy/2018-10-15T17_59_51.765248+00_00_LBL.xy
'Id: "" Comment: "Integrate frame Perovskite0_02_001.gfrmwith cursor Wedge Cursor #2" Operator: "UC Berkeley" Anode: "Co" Scantype: "TwoTheta" TimePerStep: "900"
15.205 -0.0166276
15.41 0.0113387
15.615 0.000347324
15.82 0.0116382
16.025 0.00658535
16.23 0.0182696
16.435 0.0249877
16.64 0.0190839
16.845 0.0250576
17.05 0.00774514
17.255 0.020075
17.46 0.011349
17.665 0.00389602
17.87 0.00333143
18.075 0.0224713
18.28 0.0146475
18.485 0.0242457
18.69 0.0269167
18.895 0.0208326
19.1 0.0178796
19.305 0.0158398
19.51 0.0212605
19.715 0.00129492
19.92 0.015109
20.125 0.00147506
20.33 0.00249075
20.535 0.0294146
20.74 0.00763422
20.945 0.00406986
21.15 0.000989356
21.355 0.0190801
21.56 -0.0126419
21.765 0.0117008
21.97 0.00385165
22.175 0.00314307
22.38 -0.0060629
22.585 -0.0124095
22.79 0.0354388
22.995 0.0347492
23.2 0.00314926
23.405 0.0117475
23.61 0.013656
23.815 0.00591049
24.02 0.0218941
24.225 -0.000388953
24.43 -0.0030989
24.635 0.000661591
24.84 0.0135119
25.045 -0.00222204
25.25 0.0209557
25.455 0.0183303
25.66 0.0303512
25.865 0.0649399
26.07 0.121219
26.275 0.278799
26.48 0.17597
26.685 0.0411608
26.89 0.0223534
27.095 0.0324401
27.3 0.0123569
27.505 0.0195554
27.71 0.00808089
27.915 0.0160947
28.12 0.00532393
28.325 0.00682231
28.53 0.0166455
28.735 0.0271356
28.94 0.0818902
29.145 0.159469
29.35 0.263145
29.555 0.874195
29.76 0.188733
29.965 0.0195656
30.17 0.018713
30.375 0.0371067
30.58 0.123072
30.785 0.0072899
30.99 0.00624052
31.195 0.00476997
31.4 0.0090194
31.605 -0.0133753
31.81 0.00226608
32.015 -0.0112444
32.22 0.00104956
32.425 -0.00484178
32.63 6.94287e-05
32.835 -0.00047947
33.04 0.000912226
33.245 0.00545273
33.45 0.00334477
33.655 -0.0014331
33.86 -0.00498844
34.065 -0.010376
34.27 -0.000133227
34.475 0.0231183
34.68 0.240941
34.885 0.281141
35.09 0.11124
35.295 0.112553
35.5 0.0298163
35.705 0.00103685
35.91 -0.00585034
36.115 -0.000434026
36.32 -0.00209281
36.525 0.000230718
36.73 0.00484947
36.935 0.0246202
37.14 0.0979713
37.345 0.361043
37.55 0.230293
37.755 0.038121
37.96 -0.0022225
38.165 -0.00137208
38.37 0.00549171
38.575 0.000768709
38.78 -0.00755916
38.985 0.00295238
39.19 0.0129211
39.395 0.0265744
39.6 0.0420538
39.805 0.0471079
40.01 0.14009
40.215 0.79952
40.42 0.0660503
40.625 0.0081577
40.83 0.00960029
41.035 -0.00797483
41.24 -0.00287805
41.445 0.0185134
41.65 0.00199236
41.855 -0.0113656
42.06 -0.00390297
42.265 -0.000854493
42.47 0.00408283
42.675 0.00497924
42.88 0.0109478
43.085 0.00302776
43.29 0.00582687
43.495 0.00245926
43.7 0.00769171
43.905 0.0173982
44.11 0.0442297
44.315 0.0637346
44.52 0.004162
44.725 0.00289272
44.93 0.00487181
45.135 0.00282068
45.34 0.000473327
45.545 0.0127525
45.75 0.0103797
45.955 -0.000759584
46.16 0.0144485
46.365 0.0374436
46.57 0.16092
46.775 0.645003
46.98 0.0726298
47.185 0.0115641
47.39 0.0192925
47.595 0.0166978
47.8 0.0493093
48.005 0.0896487
48.21 0.0751097
48.415 0.112299
48.62 0.147062
48.825 0.538624
49.03 0.791873
49.235 0.0559628
49.44 0.00824345
49.645 0.00621961
49.85 -0.00376809
50.055 0.000881614
50.26 0.00445439
50.465 0.0084531
50.67 0.0208244
50.875 0.0107697
51.08 0.00169579
51.285 0.00305806
51.49 0.00437599
51.695 0.000728849
51.9 -0.000811628
52.105 0.00011619
52.31 -0.00476186
52.515 -0.00229026
52.72 -0.00139538
52.925 0.00160954
53.13 0.00711834
53.335 0.00580357
53.54 0.0165654
53.745 0.0240267
53.95 0.00334247
54.155 -0.00433708
54.36 -0.00570101
54.565 0.00103075
54.77 0.0199335
54.975 0.0569037
55.18 0.0336968
55.385 0.00871766
55.59 0.0117149
55.795 0.0344046
56 0.0444426
56.205 0.0927856
56.41 0.0539766
56.615 0.0172335
56.82 0.0342669
57.025 0.031839
57.23 -0.00266203
57.435 0.00362443
57.64 0.00755883
57.845 -0.00317622
58.05 -0.000841753
58.255 0.00819371
58.46 0.0231508
58.665 0.0147585
58.87 -0.00206169
59.075 0.00417307
59.28 0.00126256
59.485 0.0117476
59.69 0.0207397
59.895 0.038969
60.1 0.0127177
60.305 -0.00266503
60.51 -0.00873394
60.715 0.000545467
60.92 0.00357298
61.125 0.0210233
61.33 0.0265578
61.535 0.012616
61.74 0.000341973
61.945 -0.00496094
62.15 0.000515448
62.355 -0.000728769
62.56 0.00106398
62.765 0.00269243
62.97 -0.00444561
63.175 0.00877909
63.38 0.0111757
63.585 0.0258198
63.79 0.0124993
63.995 -0.000694512
64.2 -0.000108665
64.405 0.00774978
64.61 0.00175228
64.815 -0.000936004
65.02 0.0181253
65.225 0.0499491
65.43 0.11293
65.635 0.0637666
65.84 0.0116717
66.045 0.0105626
66.25 0.0181004
66.455 0.0089511
66.66 0.00163859
66.865 -0.00134342
67.07 0.00117951
67.275 0.00456972
67.48 -0.00270547
67.685 0.00139492
67.89 -0.0063551
68.095 0.00214281
68.3 0.000349071
68.505 0.00444459
68.71 0.0107798
68.915 0.0228353
69.12 0.02644
69.325 0.0515605
69.53 0.0649398
69.735 0.0659409
69.94 0.0292811
70.145 0.011939
70.35 -0.000648572
70.555 -0.000767345
70.76 0.00655993
70.965 0.00208404
71.17 0.00510994
71.375 0.00760748
71.58 0.010494
71.785 0.0123314
71.99 0.0173347
72.195 0.0130037
72.4 -0.00431129
72.605 -0.000998048
72.81 0.00877199
73.015 0.0278545
73.22 0.0307154
73.425 0.0399351
73.63 0.0420884
73.835 0.0234513
74.04 0.023402
74.245 0.0302511
74.45 0.0358053
74.655 0.0392297
74.86 0.119236
75.065 0.264631
75.27 0.116868
75.475 0.0476243
75.68 0.0394174
75.885 0.0164377
76.04 -0.00647757