File: data/xrd/xy/2018-12-11T15_55_59.662061+00_00_LBL.xy
'Id: "" Comment: "Integrate frame perovskite0_02_002.gfrmwith cursor Wedge Cursor #1" Operator: "UC Berkeley" Anode: "Co" Scantype: "TwoTheta" TimePerStep: "500"
14.09 -0.0235468
14.295 0.0262602
14.5 0.00999835
14.705 0.0214134
14.91 0.0162871
15.115 0.0413906
15.32 -0.0126136
15.525 0.0464638
15.73 0.0509147
15.935 -0.0126186
16.14 0.0192823
16.345 0.0121917
16.55 0.0495632
16.755 0.0345687
16.96 0.0016741
17.165 0.00200747
17.37 0.0465982
17.575 0.00316848
17.78 0.032825
17.985 0.0373576
18.19 0.0133858
18.395 0.0274252
18.6 0.0242812
18.805 0.0289723
19.01 0.0298278
19.215 0.0327835
19.42 0.0627483
19.625 0.0408681
19.83 0.0453513
20.035 0.00276009
20.24 0.0445178
20.445 0.0488865
20.65 0.0431087
20.855 0.062945
21.06 0.0864674
21.265 0.0683649
21.47 0.0797229
21.675 0.072442
21.88 0.0636462
22.085 0.0742147
22.29 0.101049
22.495 0.131307
22.7 0.114133
22.905 0.128008
23.11 0.105826
23.315 0.13736
23.52 0.145215
23.725 0.140245
23.93 0.137899
24.135 0.155977
24.34 0.165983
24.545 0.148128
24.75 0.174103
24.955 0.193233
25.16 0.215223
25.365 0.2872
25.57 0.37645
25.775 0.671998
25.98 1.60146
26.185 3.09691
26.39 1.44849
26.595 0.43353
26.8 0.196652
27.005 0.152129
27.21 0.11191
27.415 0.27747
27.62 0.0715455
27.825 0.0377984
28.03 0.026131
28.235 0.0214293
28.44 0.0263943
28.645 0.0314678
28.85 0.0153214
29.055 0.0143049
29.26 0.00615571
29.465 0.0263511
29.67 0.0182094
29.875 0.0591509
30.08 0.0361858
30.285 0.00873703
30.49 0.00627481
30.695 0.0139702
30.9 0.0217149
31.105 0.048059
31.31 0.0147224
31.515 0.031411
31.72 0.0189118
31.925 0.0281221
32.13 -0.00321605
32.335 0.0493136
32.54 0.0117819
32.745 0.00321398
32.95 -0.000209987
33.155 0.0197934
33.36 0.010202
33.565 0.0492178
33.77 0.0186589
33.975 0.0180025
34.18 0.0121819
34.385 0.00969352
34.59 -0.00552635
34.795 0.00283177
35 0.0013299
35.205 0.00840587
35.41 0.0100009
35.615 0.0135532
35.82 0.0137764
36.025 0.00492177
36.23 -0.00842324
36.435 0.0343278
36.64 0.0242508
36.845 0.0663603
37.05 0.0221252
37.255 -0.0037065
37.46 0.0083323
37.665 0.0456879
37.87 0.0476454
38.075 0.0170518
38.28 0.0389145
38.485 0.0501197
38.69 0.0525047
38.895 0.114274
39.1 0.247247
39.305 0.41443
39.51 0.558404
39.715 0.501113
39.92 0.353421
40.125 0.163511
40.33 0.05921
40.535 0.0419393
40.74 0.033847
40.945 0.0231646
41.15 0.00523837
41.355 0.0196291
41.56 0.0101039
41.765 0.0145442
41.97 0.0144052
42.175 0.00856666
42.38 0.00519738
42.585 0.00567563
42.79 -0.00692231
42.995 -0.0052541
43.2 0.020736
43.405 0.00423182
43.61 0.00559336
43.815 0.00454319
44.02 0.0207295
44.225 0.0195222
44.43 0.0157933
44.635 0.0233784
44.84 0.0321509
45.045 0.0169882
45.25 0.0188026
45.455 0.0195839
45.66 0.024967
45.865 0.0315158
46.07 0.0413199
46.275 0.0481582
46.48 0.0184092
46.685 0.0175478
46.89 0.00777942
47.095 0.00176916
47.3 -0.00103254
47.505 0.0100005
47.71 -0.00402195
47.915 0.0011931
48.12 -0.00337938
48.325 -0.00194806
48.53 -0.00542791
48.735 0.0144315
48.94 0.007006
49.145 0.00884417
49.35 0.0096095
49.555 0.00280057
49.76 -0.00928647
49.965 0.0219441
50.17 0.00491009
50.375 0.017348
50.58 0.0241779
50.785 0.0242242
50.99 0.0212858
51.195 -0.00872002
51.4 -0.00695709
51.605 0.00982023
51.81 -0.0067227
52.015 0.00400269
52.22 0.0137257
52.425 0.0203362
52.63 0.017591
52.835 0.014213
53.04 0.00267015
53.245 0.00618738
53.45 0.0128425
53.655 0.00117448
53.86 0.0119976
54.065 0.0169748
54.27 0.00894169
54.475 0.0167442
54.68 0.0161619
54.885 0.035454
55.09 0.0861617
55.295 0.122567
55.5 0.165119
55.705 0.162664
55.91 0.118053
56.115 0.0556349
56.32 0.0367497
56.525 0.0279027
56.73 0.0345506
56.935 0.0151496
57.14 0.0112486
57.345 0.00864184
57.55 0.00448848
57.755 -0.00173228
57.96 5.50044e-05
58.165 0.000238873
58.37 0.00231344
58.575 0.0135107
58.78 -0.00919764
58.985 -0.00880859
59.19 0.00518338
59.395 0.01494
59.6 0.0216158
59.805 0.0185611
60.01 0.0145158
60.215 0.00554449
60.42 -0.0020046
60.625 0.00288298
60.83 0.0204067
61.035 0.0326181
61.24 0.0312703
61.445 0.0285784
61.65 0.0316674
61.855 0.0532682
62.06 0.0396941
62.265 0.0615558
62.47 0.0943837
62.675 0.0770287
62.88 0.0597519
63.085 0.0382718
63.29 0.0237252
63.495 0.00714699
63.7 0.0117426
63.905 0.0126653
64.11 0.0082958
64.315 0.0107412
64.52 0.00789808
64.725 0.00725941
64.93 0.0034049
65.135 -0.000585664
65.34 0.00254869
65.545 0.0104676
65.75 0.0046539
65.955 0.00658268
66.16 0.0192162
66.365 0.00332006
66.57 0.00551055
66.775 0.0119563
66.98 -0.00117526
67.185 8.54025e-05
67.39 0.00870327
67.595 -0.00156881
67.8 0.0129838
68.005 0.00386844
68.21 -0.00427671
68.415 0.0154616
68.62 0.0132336
68.825 0.0316713
69.03 0.0335971
69.235 0.013884
69.44 0.0261902
69.645 0.0168187
69.85 -0.00521527
70.055 0.0059759
70.26 0.00420663
70.465 0.0146671
70.67 0.0229292
70.875 0.10726
71.08 0.189597
71.285 0.0385527
71.49 0.0189147
71.695 0.0171539
71.9 0.0273038
72.105 0.0309107
72.31 0.00944991
72.515 -0.00692287
72.72 -0.00555279
72.925 -0.00586756
73.13 0.00390978
73.335 0.0247371
73.54 0.0118003
73.745 0.0129135
73.95 0.0208929
74.155 0.00825681
74.36 0.0155954
74.565 0.00132193
74.77 -0.00761742
74.975 0.012657
75.18 0.0230521
75.305 -0.0108593