File: data/xrd/xy/2018-07-06T15_40_16.425303+00_00_LBL.xy
'Id: "" Comment: "Integrate frame perovskite1_02_001.gfrmwith cursor Wedge Cursor #3" Operator: "UC Berkeley" Anode: "Co" Scantype: "TwoTheta" TimePerStep: "300"
13.525 -0.0327044
13.73 0.0313764
13.935 0.0848786
14.14 0.0428296
14.345 0.0896126
14.55 0.0854361
14.755 0.0836331
14.96 0.110031
15.165 0.0761172
15.37 0.135474
15.575 0.15867
15.78 0.0610982
15.985 0.122942
16.19 0.0635275
16.395 0.0865702
16.6 0.0761135
16.805 0.0764623
17.01 0.00609925
17.215 0.0926284
17.42 0.0845188
17.625 0.0661132
17.83 0.0323123
18.035 0.0961507
18.24 0.0441108
18.445 0.122182
18.65 0.108762
18.855 0.0511259
19.06 0.124604
19.265 0.0592095
19.47 0.095874
19.675 0.0356078
19.88 0.0808493
20.085 0.0388626
20.29 0.0727497
20.495 0.0526194
20.7 0.059467
20.905 0.0481115
21.11 0.111473
21.315 0.0473788
21.52 0.0559918
21.725 0.116457
21.93 0.000241976
22.135 0.00476361
22.34 -0.00230728
22.545 0.054607
22.75 0.101459
22.955 0.0354175
23.16 0.0131117
23.365 0.044008
23.57 0.00898268
23.775 0.0298364
23.98 0.0725722
24.185 0.0955562
24.39 -0.00650397
24.595 0.0346194
24.8 0.0507984
25.005 0.0595866
25.21 0.127885
25.415 0.140466
25.62 0.15416
25.825 0.22562
26.03 0.53501
26.235 1.45194
26.44 0.767649
26.645 0.197324
26.85 0.14035
27.055 0.0758507
27.26 0.100133
27.465 0.0281077
27.67 0.0490736
27.875 0.0176492
28.08 0.044675
28.285 0.04249
28.49 0.0313816
28.695 0.0609282
28.9 0.0711382
29.105 0.0508817
29.31 0.0330671
29.515 0.0199503
29.72 0.0756175
29.925 -0.0214068
30.13 0.0904314
30.335 0.226195
30.54 0.0377295
30.745 0.0262808
30.95 0.0432941
31.155 0.0366409
31.36 0.00434952
31.565 -0.00256796
31.77 0.0531528
31.975 0.0451197
32.18 -0.0133316
32.385 0.0516067
32.59 0.0295426
32.795 -0.0183077
33 0.0504749
33.205 0.0371965
33.41 -0.0145659
33.615 0.0190453
33.82 0.00673006
34.025 0.0178524
34.23 0.00524672
34.435 0.00656762
34.64 0.0406208
34.845 0.144854
35.05 0.204951
35.255 0.0396364
35.46 0.011914
35.665 0.001212
35.87 -0.00418226
36.075 0.00220133
36.28 0.0158839
36.485 0.177754
36.69 0.086985
36.895 0.0104595
37.1 0.0126937
37.305 0.0179242
37.51 0.0504225
37.715 0.0708826
37.92 0.0124561
38.125 0.005957
38.33 0.0198136
38.535 0.0279022
38.74 0.0665398
38.945 0.0505768
39.15 0.101627
39.355 0.204984
39.56 0.273268
39.765 0.271166
39.97 0.14964
40.175 0.0894046
40.38 0.0460317
40.585 0.0444776
40.79 0.0214056
40.995 0.0362845
41.2 0.0206343
41.405 0.0376704
41.61 0.0594359
41.815 0.0188015
42.02 0.00260943
42.225 0.0329065
42.43 0.0182
42.635 0.0370019
42.84 0.0540371
43.045 0.0204145
43.25 0.0448293
43.455 0.0383895
43.66 0.0470404
43.865 0.00545406
44.07 -0.013675
44.275 0.0355708
44.48 -0.000812261
44.685 0.0193392
44.89 0.0447561
45.095 0.0495408
45.3 0.0175137
45.505 0.0174493
45.71 0.0116463
45.915 0.0205657
46.12 0.0239399
46.325 0.0342307
46.53 0.0241618
46.735 0.0316694
46.94 -0.00612174
47.145 0.0110507
47.35 0.00774022
47.555 0.0319728
47.76 0.0678688
47.965 0.104417
48.17 0.0490946
48.375 0.0943459
48.58 0.0850102
48.785 -0.00149547
48.99 -0.00995673
49.195 0.0150044
49.4 0.0223564
49.605 0.0155569
49.81 0.0221132
50.015 -0.00245802
50.22 0.00234886
50.425 0.0480658
50.63 0.0614821
50.835 0.0226171
51.04 0.0213317
51.245 0.00262742
51.45 0.0107172
51.655 0.00509829
51.86 0.0244179
52.065 0.0769069
52.27 0.125619
52.475 0.00481572
52.68 0.0175585
52.885 0.0190886
53.09 0.0112881
53.295 0.00575115
53.5 0.00546699
53.705 0.00917855
53.91 0.0256926
54.115 0.0339892
54.32 0.00591388
54.525 -0.0054153
54.73 0.00461424
54.935 0.0177652
55.14 0.053445
55.345 0.0555325
55.55 0.105653
55.755 0.102842
55.96 0.0794086
56.165 0.0386983
56.37 0.0306784
56.575 0.0235225
56.78 0.0140764
56.985 -0.000415238
57.19 0.0221
57.395 0.0830654
57.6 0.0618464
57.805 0.0230342
58.01 0.0321268
58.215 0.110471
58.42 0.0714088
58.625 0.0193364
58.83 0.01132
59.035 -0.000481731
59.24 0.0339732
59.445 0.0319243
59.65 0.0353187
59.855 0.0237279
60.06 0.035643
60.265 0.000531452
60.47 0.00528232
60.675 0.00203633
60.88 0.0182853
61.085 0.0325849
61.29 0.0188659
61.495 0.0200856
61.7 0.0194534
61.905 0.00138759
62.11 0.0735324
62.315 0.0859701
62.52 0.0662911
62.725 0.0680658
62.93 0.0866444
63.135 0.0202472
63.34 0.0120179
63.545 0.0198489
63.75 -0.0149159
63.955 0.0158478
64.16 -0.000914861
64.365 0.0218128
64.57 0.00316135
64.775 0.00637537
64.98 0.0311208
65.185 0.0324549
65.39 0.0410534
65.595 0.0299471
65.8 0.0272734
66.005 0.00973755
66.21 0.021621
66.415 0.00391597
66.62 0.0146387
66.825 0.0202256
67.03 -0.005292
67.235 0.0143859
67.44 0.0251502
67.645 0.00344842
67.85 -0.00974458
68.055 0.016666
68.26 0.0343516
68.465 0.0324617
68.67 0.0266139
68.875 0.0403324
69.08 0.0237754
69.285 0.0176756
69.49 0.0161544
69.695 0.0168889
69.9 0.00112122
70.105 0.0181481
70.31 0.01815
70.515 -0.0104743
70.72 0.0129204
70.925 0.0129175
71.13 0.0126793
71.335 0.0267693
71.54 0.0618003
71.745 0.0437164
71.95 0.0183794
72.155 0.00567719
72.36 0.00330384
72.565 0.00827417
72.77 0.0260471
72.975 0.0213227
73.18 0.0569144
73.385 0.0338605
73.59 0.037168
73.795 0.0778735
74 0.0383536
74.205 0.0152766
74.41 0.00114293
74.6 -0.013984