File: data/xrd/xy/2018-09-10T22_54_34.498665+00_00_LBL.xy
'Id: "" Comment: "Integrate frame Perovskite0_01_001.gfrmwith cursor Wedge Cursor #1" Operator: "UC Berkeley" Anode: "Co" Scantype: "TwoTheta" TimePerStep: "900"
14.97 -0.0164758
15.17 -0.000232134
15.37 0.00612314
15.57 0.0202573
15.77 0.0211562
15.97 0.116934
16.17 0.167121
16.37 0.00987259
16.57 0.0146129
16.77 0.0167277
16.97 0.0167067
17.17 0.014439
17.37 -0.00535524
17.57 0.0202304
17.77 0.00061825
17.97 0.0220834
18.17 0.00195055
18.37 -0.00241157
18.57 0.0287181
18.77 0.0223094
18.97 0.0110072
19.17 0.0243389
19.37 0.0214092
19.57 0.0232251
19.77 0.00617972
19.97 -0.00292699
20.17 0.024572
20.37 0.0292915
20.57 -0.00842712
20.77 0.00485095
20.97 0.0115932
21.17 0.0134389
21.37 0.00226975
21.57 -0.00599505
21.77 0.0079755
21.97 0.0195965
22.17 0.0240006
22.37 0.0177535
22.57 0.0255485
22.77 0.0478385
22.97 0.0627033
23.17 0.00624612
23.37 0.0406502
23.57 0.0224161
23.77 0.0250353
23.97 0.0245375
24.17 0.0152629
24.37 0.0219954
24.57 0.0245749
24.77 0.0186248
24.97 0.0353425
25.17 0.0261228
25.37 0.0446965
25.57 0.0803418
25.77 0.153478
25.97 0.421347
26.17 0.858525
26.37 0.476219
26.57 0.128238
26.77 0.0542581
26.97 0.0277985
27.17 0.0157275
27.37 0.0100238
27.57 0.0112585
27.77 0.0129797
27.97 0.0384065
28.17 0.103066
28.37 0.0289097
28.57 0.00999642
28.77 0.00160183
28.97 0.0133841
29.17 0.00836346
29.37 0.0164294
29.57 0.0440944
29.77 -0.000327316
29.97 -0.00340835
30.17 0.000167618
30.37 0.177123
30.57 0.237503
30.77 0.015824
30.97 -0.0119461
31.17 0.00657472
31.37 0.00521152
31.57 -0.0120544
31.77 0.00505467
31.97 -0.00535159
32.17 0.000319371
32.37 0.0604592
32.57 0.881808
32.77 0.245054
32.97 0.0236977
33.17 0.00947174
33.37 0.00809886
33.57 0.0126746
33.77 0.00670222
33.97 -0.00538312
34.17 -0.00796275
34.37 0.00206589
34.57 0.00416639
34.77 0.0117285
34.97 -0.00391069
35.17 0.00978312
35.37 0.0632641
35.57 0.182849
35.77 0.0167957
35.97 0.000394173
36.17 0.0106024
36.37 0.0926113
36.57 0.681931
36.77 0.308623
36.97 0.00960432
37.17 -0.00267353
37.37 0.00177254
37.57 -0.00476427
37.77 0.000526706
37.97 0.0232962
38.17 0.197941
38.37 0.10944
38.57 0.0108623
38.77 0.0119771
38.97 0.0560624
39.17 0.0781121
39.37 0.133401
39.57 0.146
39.77 0.097857
39.97 0.0724776
40.17 0.0820567
40.37 0.0461444
40.57 0.00708751
40.77 0.00258105
40.97 -0.0057594
41.17 -0.00353624
41.37 0.00584052
41.57 -0.00709598
41.77 0.0116751
41.97 0.0246603
42.17 0.00442635
42.37 -0.00388428
42.57 -0.000359509
42.77 -0.00607461
42.97 -0.00519846
43.17 -0.00415165
43.37 -0.000659948
43.57 0.00413834
43.77 0.00480743
43.97 -0.00140355
44.17 0.00095866
44.37 -0.00694699
44.57 -0.00845564
44.77 0.00144075
44.97 -0.00609252
45.17 0.00011339
45.37 0.0135199
45.57 0.0501123
45.77 0.00618445
45.97 -0.000668932
46.17 0.00518544
46.37 0.015038
46.57 0.0470687
46.77 0.191518
46.97 0.151487
47.17 0.021002
47.37 -0.00599953
47.57 -0.0034909
47.77 -0.00895996
47.97 -0.0010029
48.17 0.00807227
48.37 0.0150486
48.57 0.129443
48.77 0.142622
48.97 0.041983
49.17 0.00966933
49.37 0.0186447
49.57 0.053149
49.77 0.22706
49.97 0.255766
50.17 0.0479545
50.37 0.0171062
50.57 0.0147826
50.77 0.051316
50.97 0.0141623
51.17 -0.0046879
51.37 -0.00069461
51.57 -0.00392125
51.77 -0.00964403
51.97 -0.00313593
52.17 -0.000354442
52.37 0.0027172
52.57 0.0132717
52.77 0.0327703
52.97 0.0158113
53.17 0.00290421
53.37 -0.00030622
53.57 0.0213342
53.77 0.0136348
53.97 0.00340099
54.17 0.00273318
54.37 0.00343953
54.57 0.00222077
54.77 0.00413758
54.97 0.0212478
55.17 0.0341152
55.37 0.0519753
55.57 0.0976689
55.77 0.0544107
55.97 0.0354056
56.17 0.0138624
56.37 -0.00037845
56.57 0.000334345
56.77 -0.00250392
56.97 0.0066387
57.17 -0.0036653
57.37 -0.0047396
57.57 0.00379659
57.77 0.00790115
57.97 0.0427746
58.17 0.0692137
58.37 0.0932128
58.57 0.0718084
58.77 0.019639
58.97 0.00439658
59.17 0.00585856
59.37 0.0036563
59.57 0.00913721
59.77 -0.00781832
59.97 -0.00686449
60.17 0.00879323
60.37 0.00458675
60.57 0.0125357
60.77 0.0332507
60.97 0.074162
61.17 0.0467284
61.37 0.00765318
61.57 0.00980255
61.77 -0.00069831
61.97 0.00809939
62.17 0.0204515
62.37 0.0252222
62.57 0.0381115
62.77 0.0145876
62.97 0.0247769
63.17 0.0193161
63.37 0.0300179
63.57 0.0757541
63.77 0.0310471
63.97 0.00886577
64.17 0.00699571
64.37 -0.00213697
64.57 0.00411994
64.77 0.00889276
64.97 0.00171877
65.17 0.00490931
65.37 0.00673396
65.57 0.00461039
65.77 0.0033151
65.97 0.00641774
66.17 0.0120837
66.37 0.0112413
66.57 0.028578
66.77 0.0432505
66.97 0.0193077
67.17 0.0082554
67.37 0.00876335
67.57 -0.00132842
67.77 -0.00310536
67.97 0.00231371
68.17 0.0105658
68.37 0.0294081
68.57 0.0359626
68.77 0.0269415
68.97 0.0246868
69.17 0.0129203
69.37 -0.00294275
69.57 -0.00330479
69.77 0.000321185
69.97 0.0024063
70.17 0.00731671
70.37 0.0149104
70.57 0.0376941
70.77 0.119191
70.97 0.253954
71.17 0.13311
71.37 0.0256584
71.57 0.0200297
71.77 0.00961146
71.97 0.0126284
72.17 0.0138077
72.37 0.0398741
72.57 0.0218656
72.77 0.00726089
72.97 0.00576675
73.17 0.0285236
73.37 0.0292018
73.57 0.0263181
73.77 0.00971304
73.97 0.00480381
74.17 0.00609108
74.37 0.000845807
74.57 -0.00274116
74.77 0.00235014
74.835 -0.00786618