File: data/xrd/xy/2018-07-24T16_19_50.004700+00_00_LBL.xy
'Id: "" Comment: "Integrate frame perovskite0_02_001.gfrmwith cursor Wedge Cursor #1" Operator: "UC Berkeley" Anode: "Co" Scantype: "TwoTheta" TimePerStep: "300"
15.005 -0.0366788
15.18 -0.030884
15.355 -0.0128442
15.53 -0.0252527
15.705 0.022851
15.88 0.0512845
16.055 0.0604308
16.23 0.0233782
16.405 0.0686633
16.58 0.0487793
16.755 0.0585676
16.93 0.0380642
17.105 -0.00519983
17.28 0.067599
17.455 0.0399337
17.63 0.00954772
17.805 0.0772564
17.98 0.00551472
18.155 -0.0104109
18.33 0.0444177
18.505 0.0381584
18.68 0.0293245
18.855 0.0145186
19.03 0.0312862
19.205 0.0494368
19.38 0.0273675
19.555 0.0627734
19.73 0.0278297
19.905 0.021006
20.08 0.0868985
20.255 0.0835307
20.43 0.0432978
20.605 0.0401341
20.78 0.024807
20.955 0.0801761
21.13 0.0833134
21.305 0.0457278
21.48 0.0887768
21.655 0.106341
21.83 0.0972224
22.005 0.0900959
22.18 0.0911755
22.355 0.0938896
22.53 0.0503112
22.705 0.155898
22.88 0.0792847
23.055 0.123879
23.23 0.104759
23.405 0.134439
23.58 0.136846
23.755 0.132722
23.93 0.187279
24.105 0.142807
24.28 0.189793
24.455 0.132837
24.63 0.17091
24.805 0.193897
24.98 0.216431
25.155 0.239344
25.33 0.287306
25.505 0.356389
25.68 0.568991
25.855 1.16834
26.03 3.67453
26.205 5.10008
26.38 1.82355
26.555 0.577932
26.73 0.258039
26.905 0.19738
27.08 0.145321
27.255 0.122471
27.43 0.054842
27.605 0.0886898
27.78 0.0528076
27.955 0.0592141
28.13 0.0227971
28.305 0.0652549
28.48 0.0313306
28.655 -0.00437689
28.83 0.0438121
29.005 0.051901
29.18 0.0665288
29.355 0.0455905
29.53 0.0410204
29.705 0.000131761
29.88 0.0100428
30.055 0.0182011
30.23 -1.33199e-05
30.405 0.021051
30.58 0.0615854
30.755 0.0532865
30.93 0.0378917
31.105 0.0280482
31.28 0.0316776
31.455 -0.0110953
31.63 0.0275463
31.805 0.0221244
31.98 0.0159917
32.155 -0.00234913
32.33 0.0337804
32.505 -0.00346967
32.68 0.0338553
32.855 -0.00855806
33.03 -0.00484695
33.205 0.00755514
33.38 0.00293238
33.555 0.00989423
33.73 0.00975115
33.905 0.0223561
34.08 -0.0181029
34.255 -0.00565078
34.43 0.0195071
34.605 0.0458351
34.78 0.0811017
34.955 0.0349859
35.13 0.0237199
35.305 0.0184597
35.48 0.0107959
35.655 0.00021978
35.83 0.0181515
36.005 0.000985889
36.18 -0.00854919
36.355 0.00667895
36.53 0.00352602
36.705 -0.00155383
36.88 -0.00179277
37.055 0.0110268
37.23 0.0608841
37.405 0.101439
37.58 0.0324753
37.755 0.00350358
37.93 0.0157261
38.105 0.038684
38.28 0.0799045
38.455 0.0330291
38.63 0.0530106
38.805 0.118328
38.98 0.185643
39.155 0.361809
39.33 0.552371
39.505 0.73234
39.68 0.663583
39.855 0.457128
40.03 0.281034
40.205 0.131039
40.38 0.0583888
40.555 0.0458843
40.73 0.0261883
40.905 0.0298019
41.08 0.0167281
41.255 0.0492673
41.43 0.0376146
41.605 0.00996761
41.78 -0.00165896
41.955 -0.0131181
42.13 -0.000244348
42.305 0.015319
42.48 -0.00889922
42.655 0.0193726
42.83 0.00869091
43.005 0.025486
43.18 0.0184254
43.355 0.0367928
43.53 0.0286052
43.705 0.0153041
43.88 0.0418733
44.055 0.0196174
44.23 0.0533962
44.405 0.0345222
44.58 0.011473
44.755 -0.0112236
44.93 0.00238972
45.105 0.0182125
45.28 0.0209335
45.455 0.0155735
45.63 -0.00733312
45.805 0.0431838
45.98 0.0498588
46.155 0.0781941
46.33 0.0532328
46.505 0.0380825
46.68 0.0219317
46.855 0.0372327
47.03 0.00503172
47.205 0.00323456
47.38 -0.00816154
47.555 -0.0018498
47.73 0.0215855
47.905 0.0281068
48.08 0.00222311
48.255 0.0233658
48.43 0.00853618
48.605 0.119047
48.78 0.524642
48.955 0.145584
49.13 0.00288343
49.305 0.0177213
49.48 0.00673661
49.655 0.012989
49.83 0.0181453
50.005 0.0289769
50.18 0.00774177
50.355 0.00896266
50.53 0.0131145
50.705 -0.00681532
50.88 -0.0174549
51.055 -0.0220568
51.23 -0.00219658
51.405 -0.00378713
51.58 -0.00735812
51.755 -0.00268572
51.93 0.0112252
52.105 -0.00596517
52.28 0.0119998
52.455 0.0207416
52.63 0.067029
52.805 0.142247
52.98 0.131381
53.155 0.00805421
53.33 -0.0105304
53.505 -0.00749123
53.68 0.00299869
53.855 -0.00638549
54.03 -0.00410428
54.205 0.005208
54.38 0.0372774
54.555 0.127145
54.73 0.181811
54.905 0.127337
55.08 0.11263
55.255 0.170042
55.43 0.252753
55.605 0.238963
55.78 0.221237
55.955 0.138975
56.13 0.0659342
56.305 0.0297364
56.48 0.0197766
56.655 -0.00230976
56.83 -0.00616735
57.005 0.0163289
57.18 0.0248054
57.355 0.00759338
57.53 0.0133129
57.705 -0.00765689
57.88 0.00410109
58.055 -0.00110481
58.23 0.00247462
58.405 0.010832
58.58 0.0167372
58.755 -0.00101139
58.93 0.0459364
59.105 0.114738
59.28 0.430606
59.455 0.630586
59.63 0.191353
59.805 0.0297936
59.98 0.0168948
60.155 0.00168139
60.33 0.00609779
60.505 0.0226558
60.68 0.017988
60.855 -0.00310504
61.03 0.00317288
61.205 0.00855296
61.38 0.0218565
61.555 0.024366
61.73 0.00632515
61.905 0.0301386
62.08 0.0581656
62.255 0.0950398
62.43 0.102427
62.605 0.111431
62.78 0.0784779
62.955 0.0372929
63.13 0.0142057
63.305 0.0144545
63.48 0.00294405
63.655 0.00302915
63.83 0.00499183
64.005 0.00179591
64.18 -0.00190649
64.355 -0.00337511
64.53 0.00618419
64.705 0.00977215
64.88 0.00861407
65.055 0.042646
65.23 0.0221859
65.405 0.017292
65.58 0.0281743
65.755 0.00407209
65.93 -0.00246608
66.105 -0.00885588
66.28 0.01217
66.455 0.0155694
66.62 -0.0195912