File: data/xrd/xy/2018-08-21T00_41_41.669916+00_00_LBL.xy
'Id: "" Comment: "Integrate frame EAPbI30_00_001.gfrmwith cursor Wedge Cursor #5" Operator: "UC Berkeley" Anode: "Co" Scantype: "TwoTheta" TimePerStep: "300.011"
13.49 -0.028574
13.695 0.199922
13.9 0.0623483
14.105 -0.013399
14.31 0.085418
14.515 0.106673
14.72 0.0964082
14.925 0.115686
15.13 0.114801
15.335 0.0659906
15.54 0.0744386
15.745 0.0783803
15.95 0.0071482
16.155 0.0679932
16.36 0.0966423
16.565 0.0468443
16.77 0.112523
16.975 0.108096
17.18 0.0452545
17.385 0.0892749
17.59 0.0620832
17.795 0.0284591
18 0.0592512
18.205 0.0257579
18.41 0.0861157
18.615 0.110966
18.82 0.070165
19.025 0.122653
19.23 0.0457009
19.435 0.117241
19.64 0.0300189
19.845 0.0658234
20.05 0.0729498
20.255 0.0746522
20.46 0.138301
20.665 0.0278289
20.87 0.0812212
21.075 0.0961476
21.28 0.0384486
21.485 0.0344526
21.69 0.0725488
21.895 0.00768687
22.1 0.0735088
22.305 0.106404
22.51 0.0621675
22.715 0.0503553
22.92 0.045902
23.125 0.0576411
23.33 0.0673389
23.535 0.10937
23.74 0.0999076
23.945 0.101886
24.15 0.0804924
24.355 0.0383455
24.56 0.0774452
24.765 0.0880204
24.97 0.0543552
25.175 0.0821115
25.38 0.131607
25.585 0.0424035
25.79 0.0759064
25.995 0.0590352
26.2 0.0691025
26.405 0.0500291
26.61 0.0649158
26.815 0.0847894
27.02 0.066466
27.225 0.0137586
27.43 0.0580901
27.635 0.0523139
27.84 0.0563408
28.045 0.055251
28.25 0.119517
28.455 0.0180839
28.66 0.0836716
28.865 0.103816
29.07 0.0516673
29.275 0.0458371
29.48 0.0484572
29.685 0.0360251
29.89 0.0634809
30.095 0.258597
30.3 0.888705
30.505 0.257318
30.71 0.082043
30.915 0.0487664
31.12 0.0658459
31.325 0.075998
31.53 0.00329551
31.735 0.0297149
31.94 0.0498367
32.145 0.0542288
32.35 0.0411135
32.555 0.0337786
32.76 0.0350308
32.965 0.0328584
33.17 0.0267154
33.375 0.0430977
33.58 0.0479564
33.785 0.0495689
33.99 0.0229308
34.195 0.0356629
34.4 0.038239
34.605 0.0302995
34.81 0.128393
35.015 0.201076
35.22 0.0929173
35.425 0.0554517
35.63 0.0469295
35.835 0.0462252
36.04 0.0503455
36.245 0.068075
36.45 0.468043
36.655 0.519937
36.86 0.06965
37.065 0.0281362
37.27 0.0681225
37.475 0.143776
37.68 0.413731
37.885 0.188692
38.09 0.0707173
38.295 0.0471329
38.5 0.0170154
38.705 0.0546693
38.91 0.0820194
39.115 0.0562937
39.32 0.0398127
39.525 0.0324766
39.73 0.0197253
39.935 0.0140401
40.14 0.0268645
40.345 0.0131613
40.55 0.0490249
40.755 0.0410094
40.96 0.0314072
41.165 -0.00259287
41.37 0.00872021
41.575 0.0472436
41.78 0.297078
41.985 0.0301793
42.19 0.0193522
42.395 -0.0114655
42.6 0.0166491
42.805 0.0250344
43.01 0.0154784
43.215 -0.0149345
43.42 0.0391654
43.625 0.0317915
43.83 0.0163593
44.035 0.0133015
44.24 0.013001
44.445 0.0137898
44.65 0.00589432
44.855 0.144951
45.06 0.065232
45.265 0.0388476
45.47 3.94781e-05
45.675 -0.00637344
45.88 0.0180424
46.085 0.00899411
46.29 0.0113689
46.495 0.00226595
46.7 0.0130244
46.905 0.0110525
47.11 0.00034091
47.315 -0.00581936
47.52 0.0172497
47.725 0.0519311
47.93 0.106194
48.135 0.0774354
48.34 0.234377
48.545 0.391269
48.75 0.141834
48.955 0.0412375
49.16 0.0537655
49.365 0.0805876
49.57 0.0755736
49.775 0.0205435
49.98 0.0220007
50.185 0.0222486
50.39 0.0825408
50.595 0.218442
50.8 0.131717
51.005 0.0330197
51.21 0.0110284
51.415 -0.00854741
51.62 0.00521826
51.825 0.0222575
52.03 0.0242344
52.235 0.0844543
52.44 0.0702912
52.645 0.0285041
52.85 0.0137218
53.055 0.00369912
53.26 0.00180338
53.465 0.0118626
53.67 0.0231305
53.875 0.0246138
54.08 0.0737522
54.285 0.0563615
54.49 0.0210542
54.695 0.0207709
54.9 0.0269322
55.105 0.00307675
55.31 -0.0154619
55.515 0.011228
55.72 0.0152342
55.925 0.0150901
56.13 -0.00530818
56.335 -0.00219202
56.54 0.0152095
56.745 0.0147483
56.95 0.0191971
57.155 0.0301337
57.36 0.0248489
57.565 0.0156246
57.77 0.0358373
57.975 0.0360646
58.18 0.0833621
58.385 0.0667483
58.59 0.0356957
58.795 0.0213654
59 0.0287913
59.205 0.00228541
59.41 0.0178678
59.615 0.00765242
59.82 0.0176833
60.025 -0.00668426
60.23 0.0273277
60.435 0.0143415
60.64 0.0220289
60.845 0.0285212
61.05 0.0262279
61.255 0.011614
61.46 0.00626637
61.665 0.014146
61.87 0.0313692
62.075 0.0670615
62.28 0.0634471
62.485 0.0425787
62.69 0.0533106
62.895 0.0623486
63.1 0.0860577
63.305 0.0682765
63.51 0.053478
63.715 0.0292799
63.92 0.0376159
64.125 0.0117897
64.33 0.0275633
64.535 0.0281126
64.74 0.0158383
64.945 0.0294704
65.15 0.0191639
65.355 0.0477027
65.56 0.0235998
65.765 0.0246874
65.97 0.0303168
66.175 0.0144524
66.38 0.00835084
66.585 0.0104224
66.79 0.0202173
66.995 0.00181132
67.2 0.00794129
67.405 0.0153055
67.61 0.0214094
67.815 0.0159531
68.02 9.38786e-05
68.225 0.0173509
68.43 0.0285687
68.635 0.0252272
68.84 0.00910684
69.045 0.01182
69.25 -0.00302769
69.455 0.00645624
69.66 0.0190228
69.865 0.0166783
70.07 0.0113098
70.275 0.0290238
70.48 0.0482837
70.685 0.0675066
70.89 0.0305634
71.095 0.0318031
71.3 0.0256593
71.505 0.090066
71.71 0.185777
71.915 0.190523
72.12 0.104655
72.325 0.0542427
72.53 0.023776
72.735 0.00922942
72.94 0.0138086
73.145 0.0110452
73.35 0.00588658
73.555 -0.0131808
73.76 -0.0150257