File: data/xrd/xy/2018-07-12T19_22_54.635369+00_00_LBL.xy
'Id: "" Comment: "Integrate frame GPbI30_00_001.gfrmwith cursor Wedge Cursor #2" Operator: "UC Berkeley" Anode: "Co" Scantype: "TwoTheta" TimePerStep: "600"
13.76 -0.0220781
13.955 -0.010209
14.15 0.0105076
14.345 0.063276
14.54 0.589757
14.735 0.538691
14.93 0.0603711
15.125 0.0298113
15.32 0.0102763
15.515 0.00709168
15.71 0.0199555
15.905 0.0627063
16.1 -0.00102009
16.295 0.0439698
16.49 0.0774352
16.685 0.0425751
16.88 0.0465877
17.075 0.0336611
17.27 0.0121867
17.465 0.00964073
17.66 0.0403986
17.855 0.00541775
18.05 0.0706341
18.245 0.0115585
18.44 0.0382544
18.635 0.0167885
18.83 0.0501202
19.025 0.0284741
19.22 0.0551417
19.415 0.00245827
19.61 0.0355375
19.805 0.0272371
20 0.0385522
20.195 0.014518
20.39 0.0227918
20.585 0.0447947
20.78 0.00450738
20.975 0.0200112
21.17 0.0522503
21.365 0.0528788
21.56 0.0338637
21.755 0.0409953
21.95 0.00332364
22.145 0.0270761
22.34 0.0339869
22.535 0.0332912
22.73 -0.00483637
22.925 0.0524892
23.12 0.0423669
23.315 0.0113794
23.51 0.0650807
23.705 0.0619683
23.9 -0.0211082
24.095 0.011017
24.29 0.0469513
24.485 0.0177954
24.68 0.0688954
24.875 0.0583259
25.07 0.0583883
25.265 0.0916329
25.46 0.157703
25.655 0.312289
25.85 0.711686
26.045 2.01014
26.24 1.86301
26.435 0.52531
26.63 0.136788
26.825 0.0776672
27.02 0.0763423
27.215 0.049944
27.41 -0.00389857
27.605 0.0288374
27.8 0.0217697
27.995 0.0268528
28.19 0.0449817
28.385 0.0117445
28.58 0.00716197
28.775 0.0215006
28.97 0.00972536
29.165 0.0136001
29.36 0.0869539
29.555 0.314763
29.75 0.0747636
29.945 0.144918
30.14 0.144891
30.335 0.0229616
30.53 0.0275559
30.725 0.00153114
30.92 0.0233528
31.115 0.0181549
31.31 0.0260793
31.505 0.00581043
31.7 -0.00700477
31.895 0.0201636
32.09 0.0223146
32.285 0.0350707
32.48 0.0355182
32.675 0.0364828
32.87 0.0179814
33.065 0.0187882
33.26 0.00717316
33.455 0.0265752
33.65 0.0173375
33.845 0.0109526
34.04 0.0295646
34.235 0.101124
34.43 1.19392
34.625 0.264548
34.82 0.0518736
35.015 0.159291
35.21 0.266872
35.405 0.150799
35.6 0.0676699
35.795 0.038495
35.99 0.018947
36.185 0.00846315
36.38 0.0150046
36.575 -0.000492408
36.77 -0.00965234
36.965 0.0272227
37.16 0.0093166
37.355 -0.00627401
37.55 -0.00995693
37.745 -0.00473561
37.94 -0.00332144
38.135 0.00573828
38.33 0.00578641
38.525 0.00331442
38.72 0.0268109
38.915 0.0876573
39.11 0.164883
39.305 0.28562
39.5 0.340032
39.695 0.38452
39.89 0.621128
40.085 0.153037
40.28 0.0230341
40.475 0.0121965
40.67 0.00434394
40.865 0.0249545
41.06 -0.00898378
41.255 0.00587575
41.45 0.00202314
41.645 -0.00500295
41.84 -0.00229983
42.035 -0.0089316
42.23 0.00554672
42.425 -0.00153461
42.62 -0.00501761
42.815 -0.00173638
43.01 -0.00319882
43.205 0.00192148
43.4 0.00627435
43.595 -0.0156504
43.79 0.0200194
43.985 0.0216783
44.18 0.00551899
44.375 -0.00136332
44.57 0.0169119
44.765 0.0784669
44.96 0.880557
45.155 0.744188
45.35 0.0501254
45.545 0.023326
45.74 0.058817
45.935 0.121813
46.13 0.28352
46.325 0.0728404
46.52 0.0240844
46.715 0.0249801
46.91 0.0159294
47.105 0.0225655
47.3 0.0170908
47.495 0.0123116
47.69 0.00398481
47.885 0.0132553
48.08 -0.00119444
48.275 0.00207744
48.47 0.0249666
48.665 0.0382491
48.86 0.00341365
49.055 -0.00404625
49.25 -0.00304596
49.445 0.0116726
49.64 0.00140762
49.835 0.00396534
50.03 0.00941709
50.225 0.000474001
50.42 -0.000850258
50.615 0.012047
50.81 -0.000972371
51.005 -0.00600492
51.2 -0.00670233
51.395 -0.00860743
51.59 -0.00178066
51.785 -0.0105069
51.98 0.000620014
52.175 0.00102281
52.37 0.0188774
52.565 0.029122
52.76 0.0967371
52.955 0.205688
53.15 0.0403275
53.345 0.00571626
53.54 -0.00501384
53.735 0.00876206
53.93 0.0103451
54.125 0.00775747
54.32 0.0120656
54.515 0.00821703
54.71 0.0182287
54.905 0.0197353
55.1 0.0474024
55.295 0.0860229
55.49 0.107278
55.685 0.135716
55.88 0.106308
56.075 0.123937
56.27 0.031556
56.465 -0.00417588
56.66 -0.00232438
56.855 -0.00835843
57.05 -0.00678134
57.245 0.00176508
57.44 0.00622281
57.635 0.0093735
57.83 0.000482892
58.025 0.0044433
58.22 0.000577279
58.415 0.0207255
58.61 0.0314878
58.805 0.0257821
59 0.020522
59.195 0.00795727
59.39 0.00567941
59.585 0.00638727
59.78 -0.00150462
59.975 0.00723256
60.17 0.00924241
60.365 -0.00407325
60.56 0.00440805
60.755 0.0119459
60.95 0.0255277
61.145 0.0719755
61.34 0.241069
61.535 0.327268
61.73 0.115018
61.925 0.0321853
62.12 0.0227732
62.315 0.0380213
62.51 0.0757718
62.705 0.0449192
62.9 0.0222916
63.095 0.017839
63.29 -0.00488251
63.485 -0.00128991
63.68 0.00421913
63.875 -0.00163719
64.07 -0.00351675
64.265 0.00332777
64.46 0.00383892
64.655 -0.000589478
64.85 0.00518996
65.045 0.0135288
65.24 0.00912012
65.435 0.00534676
65.63 0.00709721
65.825 0.0101051
66.02 0.00932553
66.215 0.04397
66.41 0.187274
66.605 0.13526
66.8 0.0284452
66.995 0.0073331
67.19 0.00876891
67.385 0.0161322
67.58 0.000459376
67.775 0.00670976
67.97 0.0415792
68.165 0.0356254
68.36 0.0131249
68.555 -0.0106492
68.75 0.00542477
68.945 0.0143575
69.14 0.00360048
69.335 0.00916198
69.53 -0.00231002
69.725 -0.0011668
69.92 0.00244753
70.115 0.0107728
70.31 -0.0108673
70.505 0.00659149
70.7 0.00715328
70.895 0.0075544
71.07 -0.0119923