File: data/xrd/xy/2018-07-09T22_47_01.237679+00_00_LBL.xy
'Id: "" Comment: "Integrate frame perovskite1_01_001.gfrmwith cursor Wedge Cursor #2" Operator: "UC Berkeley" Anode: "Co" Scantype: "TwoTheta" TimePerStep: "300"
13.765 -0.030313
13.965 0.0296195
14.165 0.080424
14.365 0.0436319
14.565 0.0396176
14.765 0.0776925
14.965 0.0231957
15.165 0.0254849
15.365 0.0867949
15.565 0.0517167
15.765 0.0424326
15.965 0.0348636
16.165 0.350231
16.365 0.14024
16.565 0.0855014
16.765 0.0558584
16.965 0.0638883
17.165 0.0361638
17.365 0.0363318
17.565 0.0533913
17.765 0.0696366
17.965 0.0641206
18.165 0.0662823
18.365 0.123792
18.565 0.0582733
18.765 0.0484295
18.965 0.0388698
19.165 0.0604019
19.365 0.052938
19.565 0.101155
19.765 0.0745645
19.965 0.0547827
20.165 0.0994588
20.365 0.0907838
20.565 0.0817889
20.765 0.0154305
20.965 0.0771872
21.165 0.067037
21.365 0.0549681
21.565 0.0799519
21.765 0.0513208
21.965 0.0168539
22.165 0.0878039
22.365 0.0971345
22.565 0.062349
22.765 0.0820473
22.965 0.0389966
23.165 0.115859
23.365 0.0988386
23.565 0.0399842
23.765 0.0606075
23.965 0.072373
24.165 0.0818802
24.365 0.0884767
24.565 0.0431871
24.765 0.0812969
24.965 0.041211
25.165 0.0862895
25.365 0.10971
25.565 0.0887142
25.765 0.170682
25.965 0.23435
26.165 0.589567
26.365 0.632887
26.565 0.186226
26.765 0.0941835
26.965 0.0381236
27.165 0.0704549
27.365 0.122554
27.565 0.0423796
27.765 0.0200334
27.965 0.0712935
28.165 0.0793259
28.365 0.0951406
28.565 0.185453
28.765 0.0317405
28.965 0.04463
29.165 0.0312268
29.365 0.00273261
29.565 -0.00248194
29.765 0.0432877
29.965 0.0731886
30.165 0.0370368
30.365 0.0221418
30.565 -0.00686934
30.765 0.0121602
30.965 0.0273945
31.165 0.0463143
31.365 0.0384138
31.565 0.0185797
31.765 0.0154436
31.965 0.0401031
32.165 0.0514071
32.365 0.0884327
32.565 0.176929
32.765 9.61235
32.965 0.552049
33.165 1.13123
33.365 0.206913
33.565 0.0860281
33.765 0.0503072
33.965 0.0362674
34.165 0.0358576
34.365 0.00978692
34.565 0.000276186
34.765 0.0081517
34.965 -0.00546665
35.165 -0.00472247
35.365 -0.01563
35.565 -0.00727774
35.765 0.00157534
35.965 0.136886
36.165 0.0728961
36.365 0.0310912
36.565 0.0319562
36.765 0.147808
36.965 0.375502
37.165 0.568598
37.365 0.143938
37.565 0.0341751
37.765 -0.00987834
37.965 0.00134271
38.165 0.0119149
38.365 0.0290134
38.565 0.0257358
38.765 0.00742939
38.965 0.0257044
39.165 0.0623367
39.365 0.0930141
39.565 0.130637
39.765 0.0975989
39.965 0.071283
40.165 0.0555348
40.365 0.0202273
40.565 0.0538229
40.765 0.120199
40.965 0.0585805
41.165 0.0160499
41.365 -0.000546735
41.565 -0.0138385
41.765 0.0247888
41.965 0.0336532
42.165 0.017793
42.365 0.0209338
42.565 0.0168873
42.765 0.00480154
42.965 0.0212848
43.165 0.00828053
43.365 0.0331074
43.565 0.087589
43.765 0.0364236
43.965 0.0137876
44.165 0.00468075
44.365 0.060813
44.565 0.0179736
44.765 0.0089092
44.965 0.0366642
45.165 0.0234139
45.365 0.0175758
45.565 0.0249787
45.765 0.0642589
45.965 0.0339371
46.165 0.0141856
46.365 0.0194374
46.565 0.00540348
46.765 0.0142232
46.965 0.0412794
47.165 0.105401
47.365 0.56305
47.565 0.924627
47.765 1.74238
47.965 0.0743813
48.165 0.0180117
48.365 0.0223503
48.565 0.0222122
48.765 0.0110332
48.965 0.0198713
49.165 0.00619787
49.365 0.011771
49.565 0.0933128
49.765 0.125248
49.965 0.36428
50.165 0.170396
50.365 0.563102
50.565 0.904574
50.765 0.188433
50.965 0.0305828
51.165 -0.00618112
51.365 0.00924035
51.565 0.0226236
51.765 0.0198201
51.965 0.00240968
52.165 0.0132196
52.365 0.0154491
52.565 0.00440281
52.765 0.0269857
52.965 0.0159405
53.165 0.00974428
53.365 -0.00212306
53.565 0.0310478
53.765 0.0673763
53.965 0.0157904
54.165 0.0103985
54.365 -0.00190319
54.565 0.010972
54.765 -0.0057178
54.965 0.0181974
55.165 0.0291998
55.365 0.0621193
55.565 0.0729809
55.765 0.0789415
55.965 0.0552923
56.165 0.0357201
56.365 0.00253796
56.565 0.031674
56.765 -0.0166349
56.965 0.0140186
57.165 0.0115937
57.365 0.0155274
57.565 -0.0123249
57.765 -0.00837365
57.965 -0.0111522
58.165 -0.00222781
58.365 0.0526598
58.565 0.0159525
58.765 0.0795722
58.965 0.0836565
59.165 0.238892
59.365 0.135577
59.565 0.0125909
59.765 -0.010092
59.965 0.0180451
60.165 0.00497106
60.365 0.0270288
60.565 0.0396805
60.765 0.0249284
60.965 0.025176
61.165 0.129401
61.365 0.0519289
61.565 0.131511
61.765 0.152382
61.965 0.228139
62.165 0.0450022
62.365 0.0140126
62.565 0.022349
62.765 0.0222171
62.965 0.0182118
63.165 0.00392319
63.365 0.0133526
63.565 0.0170914
63.765 0.0160814
63.965 0.0196425
64.165 0.0451775
64.365 0.0436612
64.565 0.0456464
64.765 0.0414932
64.965 0.0224358
65.165 -0.00255468
65.365 0.00497511
65.565 0.0216141
65.765 0.0131451
65.965 0.0224307
66.165 0.0505351
66.365 0.0292178
66.565 0.00412478
66.765 0.00828401
66.965 0.0166871
67.165 -0.00454357
67.365 0.0132397
67.565 0.0120851
67.765 0.0141086
67.965 -0.00234415
68.165 0.000839361
68.365 0.0133806
68.565 0.0185953
68.765 0.0200579
68.965 0.0162031
69.165 0.0288476
69.365 0.0248384
69.565 0.0119051
69.765 0.0217594
69.965 0.00980731
70.165 0.0129821
70.365 0.0119028
70.565 0.00585305
70.765 0.0126942
70.965 0.00508089
71.165 0.0341321
71.365 0.0761941
71.565 0.0836287
71.765 0.167532
71.965 0.216015
72.165 0.149758
72.365 0.0874165
72.565 0.0264771
72.765 0.00719567
72.965 0.00646675
73.165 0.016429
73.365 -0.00440011
73.415 -0.0160773