File: data/xrd/xy/2018-09-17T21_43_06.730215+00_00_LBL.xy
'Id: "" Comment: "Integrate frame perovskite1_03_001.gfrmwith cursor Wedge Cursor #6" Operator: "UC Berkeley" Anode: "Co" Scantype: "TwoTheta" TimePerStep: "300"
14.16 -0.0293128
14.355 0.0100457
14.55 0.0501473
14.745 0.0701261
14.94 0.0940728
15.135 0.0444584
15.33 0.0514312
15.525 0.0994695
15.72 0.0839046
15.915 0.070963
16.11 0.0333999
16.305 0.0834738
16.5 0.0691725
16.695 0.0646178
16.89 0.0870208
17.085 0.0404055
17.28 0.0144694
17.475 0.0309751
17.67 0.0313824
17.865 -0.00376733
18.06 0.0540963
18.255 0.0656816
18.45 -0.0121173
18.645 0.0315831
18.84 0.0215765
19.035 0.0465023
19.23 0.0440182
19.425 0.0357916
19.62 0.000860527
19.815 0.0554386
20.01 0.012935
20.205 0.0787983
20.4 0.0416396
20.595 0.032017
20.79 0.0271825
20.985 0.0492023
21.18 0.0575904
21.375 0.0261046
21.57 0.0147462
21.765 0.0623723
21.96 0.0700705
22.155 0.0242343
22.35 0.0784432
22.545 0.045101
22.74 0.0624787
22.935 0.00293868
23.13 0.00531801
23.325 0.0327153
23.52 0.0331776
23.715 -0.0203887
23.91 0.0423513
24.105 0.0139576
24.3 0.041575
24.495 0.0352014
24.69 0.0439088
24.885 0.0355787
25.08 0.0666871
25.275 0.0377623
25.47 0.0311536
25.665 0.027673
25.86 0.00777375
26.055 0.109105
26.25 0.194065
26.445 0.101369
26.64 0.0512655
26.835 0.0649626
27.03 0.0382961
27.225 0.00490675
27.42 -0.0238498
27.615 0.0472743
27.81 0.0439244
28.005 0.00462002
28.2 0.0228829
28.395 -0.00276176
28.59 -0.00784756
28.785 0.0297901
28.98 0.0131498
29.175 0.0648432
29.37 0.00957218
29.565 0.0441024
29.76 0.0900321
29.955 0.961964
30.15 1.33956
30.345 0.077353
30.54 0.0105085
30.735 0.0308406
30.93 0.0235628
31.125 0.0346633
31.32 0.0886687
31.515 0.0286707
31.71 0.0507389
31.905 -0.0015157
32.1 -0.00531107
32.295 0.0415058
32.49 0.0431644
32.685 0.00880235
32.88 -0.00832868
33.075 -0.0228381
33.27 0.0308064
33.465 -0.00212737
33.66 0.0189356
33.855 0.00610156
34.05 0.0067792
34.245 0.0154818
34.44 -0.00545301
34.635 0.00769207
34.83 -0.0101736
35.025 0.00887209
35.22 -0.00682499
35.415 -0.00252459
35.61 0.00907831
35.805 0.00109539
36 0.0115317
36.195 0.00284413
36.39 -0.0103065
36.585 0.00890022
36.78 0.00260605
36.975 0.0276488
37.17 -0.00416982
37.365 0.0366234
37.56 0.186572
37.755 2.00211
37.95 1.74191
38.145 0.973164
38.34 0.113964
38.535 0.0453484
38.73 0.0111088
38.925 0.00324328
39.12 0.00106
39.315 0.0171809
39.51 0.0250183
39.705 0.0112787
39.9 0.010663
40.095 0.0118121
40.29 0.01161
40.485 0.0143042
40.68 0.00496419
40.875 -0.0138685
41.07 0.0337506
41.265 -0.00825485
41.46 0.0103028
41.655 -0.00103262
41.85 0.00131688
42.045 0.00986174
42.24 0.0142266
42.435 0.0163969
42.63 0.0181638
42.825 0.00519956
43.02 -0.00285529
43.215 0.00402089
43.41 0.00766011
43.605 0.0292312
43.8 0.0271087
43.995 -0.000945192
44.19 0.0229971
44.385 0.0133702
44.58 0.0267124
44.775 -0.00745774
44.97 0.0313574
45.165 0.0117081
45.36 0.0312637
45.555 0.00832978
45.75 0.0787121
45.945 0.00806335
46.14 -0.00078149
46.335 0.00917073
46.53 0.0311097
46.725 0.0335497
46.92 0.00790659
47.115 0.0128318
47.31 0.0102901
47.505 -0.0175746
47.7 0.0147282
47.895 -0.00486596
48.09 -0.00923095
48.285 -0.0066182
48.48 0.00358609
48.675 -0.0120858
48.87 0.0165989
49.065 0.00477064
49.26 -0.0111549
49.455 0.0067726
49.65 -0.000278643
49.845 0.00123553
50.04 0.0128683
50.235 0.00321959
50.43 0.0194034
50.625 -0.00746569
50.82 -0.00798133
51.015 0.00158128
51.21 0.0748607
51.405 0.0910651
51.6 0.0254608
51.795 0.0238126
51.99 0.0171225
52.185 0.00443571
52.38 0.006181
52.575 0.00780405
52.77 0.00161688
52.965 -0.00671644
53.16 -0.000696848
53.355 0.0116986
53.55 0.00900375
53.745 0.000236761
53.94 0.0241336
54.135 -0.0103416
54.33 0.00252506
54.525 -0.00583057
54.72 -0.000272804
54.915 -0.00740747
55.11 -0.000161488
55.305 0.0113149
55.5 0.012627
55.695 0.0100945
55.89 -0.00657883
56.085 -0.00904439
56.28 -0.00280274
56.475 0.0162093
56.67 -0.00238309
56.865 -0.000656791
57.06 0.0218643
57.255 0.0172683
57.45 0.0165333
57.645 0.0263855
57.84 0.012498
58.035 0.0208175
58.23 -0.00151457
58.425 0.00376452
58.62 -0.00398586
58.815 -0.00440111
59.01 0.00926888
59.205 0.0247633
59.4 0.00388088
59.595 0.0145194
59.79 0.0155318
59.985 -0.0130694
60.18 0.00271844
60.375 0.0267821
60.57 0.00350355
60.765 0.0231994
60.96 0.0205392
61.155 0.00301955
61.35 -0.000307031
61.545 0.0126235
61.74 0.0137286
61.935 0.0483909
62.13 0.11805
62.325 1.24122
62.52 0.719185
62.715 0.260519
62.91 0.0191277
63.105 0.0170274
63.3 -0.00951631
63.495 0.00430617
63.69 0.00487887
63.885 0.00458
64.08 0.0273365
64.275 -0.00477525
64.47 -0.000267742
64.665 -0.00597656
64.86 -0.00381671
65.055 0.00255926
65.25 0.0114783
65.445 -0.00359205
65.64 -0.00375465
65.835 0.00188015
66.03 0.0171545
66.225 0.0148866
66.42 -0.0031254
66.615 0.00498949
66.81 0.0043224
67.005 -0.000665843
67.2 0.00518203
67.395 0.0188238
67.59 0.0756911
67.785 0.0521245
67.98 0.0492414
68.175 0.0298905
68.37 0.00422601
68.565 0.0142274
68.76 -0.000952287
68.955 0.0221228
69.15 0.0220158
69.345 0.015029
69.54 0.0241168
69.735 0.0100466
69.93 0.00607488
70.125 0.00614772
70.32 0.00271244
70.515 -0.000152185
70.71 0.0111835
70.905 0.00994971
71.1 0.0240603
71.295 0.0473245
71.49 0.0153316
71.685 -0.01463
71.845 -0.0160525