File: data/xrd/xy/2019-09-12T19_45_57.603044+00_00_LBL_C1.xy
'Id: "" Comment: "Integrate frame piperidinium_01_001.gfrmwith cursor Wedge Cursor #1" Operator: "UC Berkeley" Anode: "Co" Scantype: "TwoTheta" TimePerStep: "600.015"
13.655 -0.0248286
13.85 0.033754
14.045 0.0328149
14.24 0.0819083
14.435 0.0793405
14.63 0.0600241
14.825 0.0612503
15.02 0.0726334
15.215 0.042582
15.41 0.0589714
15.605 0.078547
15.8 0.0282593
15.995 0.0352252
16.19 0.0170772
16.385 0.0296801
16.58 0.0354878
16.775 -0.0191721
16.97 0.000458479
17.165 0.0217738
17.36 0.0219329
17.555 0.0087501
17.75 -0.01847
17.945 0.0358114
18.14 0.0554483
18.335 0.0435755
18.53 0.0172331
18.725 -0.00325913
18.92 0.0463649
19.115 0.0157277
19.31 0.0436098
19.505 -0.0103117
19.7 0.0227805
19.895 0.0038474
20.09 0.0483716
20.285 0.0577072
20.48 0.153355
20.675 0.105399
20.87 0.0340848
21.065 0.0211905
21.26 0.0335549
21.455 0.00299584
21.65 0.00601392
21.845 0.00591236
22.04 0.0532991
22.235 0.0382693
22.43 0.20642
22.625 0.0383691
22.82 0.00114213
23.015 0.0264191
23.21 0.000966095
23.405 0.0308847
23.6 0.306265
23.795 0.479327
23.99 0.0177612
24.185 0.0775355
24.38 0.0164314
24.575 0.012176
24.77 0.061502
24.965 -0.0111955
25.16 -0.00480325
25.355 0.014271
25.55 0.0313389
25.745 0.172572
25.94 0.0860585
26.135 0.0372594
26.33 0.10361
26.525 0.0334378
26.72 0.0146199
26.915 0.0613635
27.11 0.0151629
27.305 0.0306246
27.5 0.0186895
27.695 0.0239803
27.89 0.00289526
28.085 0.00651454
28.28 0.00338622
28.475 0.00945047
28.67 0.0572712
28.865 0.0192086
29.06 0.381869
29.255 1.82837
29.45 0.090046
29.645 -0.0104797
29.84 0.00993684
30.035 0.00481883
30.23 -0.0174929
30.425 0.0956773
30.62 0.351706
30.815 0.0156212
31.01 0.00980016
31.205 0.00402521
31.4 0.00829357
31.595 -0.00601888
31.79 0.00505556
31.985 -0.00451147
32.18 0.00611068
32.375 0.00812207
32.57 0.00593647
32.765 0.242747
32.96 0.993973
33.155 0.260876
33.35 0.0327154
33.545 -0.0177299
33.74 0.0117959
33.935 0.085626
34.13 0.0611082
34.325 -0.000430307
34.52 -0.00984169
34.715 -0.00897397
34.91 0.0500919
35.105 0.15742
35.3 0.487042
35.495 0.0761059
35.69 0.00689562
35.885 0.0484285
36.08 0.273986
36.275 1.98648
36.47 2.306
36.665 0.147327
36.86 0.914925
37.055 0.216038
37.25 0.000177393
37.445 -0.00143398
37.64 -0.00160905
37.835 0.00866644
38.03 -0.00253779
38.225 -0.00762527
38.42 0.0218207
38.615 0.0481347
38.81 0.00901719
39.005 0.014714
39.2 -0.00368911
39.395 0.00537946
39.59 0.0365732
39.785 0.231958
39.98 0.24482
40.175 0.0637595
40.37 0.0062727
40.565 0.0116924
40.76 0.00269772
40.955 0.00718169
41.15 0.00611997
41.345 0.197158
41.54 1.30849
41.735 1.55708
41.93 0.695557
42.125 0.179973
42.32 -0.00175675
42.515 0.03503
42.71 0.0473602
42.905 0.0564454
43.1 0.0114015
43.295 0.0052437
43.49 -0.00308263
43.685 -0.000628813
43.88 0.0246278
44.075 -0.00200564
44.27 0.00725209
44.465 -0.00396124
44.66 0.00729711
44.855 0.0566129
45.05 0.0339199
45.245 0.030345
45.44 0.0130489
45.635 -0.00610813
45.83 0.0228638
46.025 0.12193
46.22 0.350906
46.415 0.0721059
46.61 0.0180871
46.805 0.00311627
47 0.00600086
47.195 0.0306716
47.39 0.0203423
47.585 0.0394824
47.78 0.224803
47.975 0.255267
48.17 0.289928
48.365 0.738039
48.56 1.90997
48.755 0.36698
48.95 0.0368458
49.145 0.0473671
49.34 0.0270166
49.535 0.060497
49.73 0.308023
49.925 1.07043
50.12 1.28181
50.315 0.0686644
50.51 0.0111329
50.705 0.00853726
50.9 -0.00137291
51.095 -0.00617697
51.29 0.00896411
51.485 0.0118215
51.68 0.0504047
51.875 0.379865
52.07 0.415197
52.265 0.25283
52.46 0.0376516
52.655 -0.0096729
52.85 0.0875836
53.045 0.02433
53.24 0.118635
53.435 0.298032
53.63 0.0803193
53.825 -0.00201886
54.02 0.0250734
54.215 0.0234004
54.41 0.0690909
54.605 0.175088
54.8 0.0702597
54.995 -0.00505862
55.19 0.00689195
55.385 0.0604261
55.58 0.380046
55.775 0.262503
55.97 0.109467
56.165 0.000370453
56.36 0.00793465
56.555 0.00162842
56.75 0.00358953
56.945 0.0105366
57.14 -0.0137958
57.335 0.00719518
57.53 0.00393253
57.725 0.00454591
57.92 0.00080459
58.115 0.00898995
58.31 0.00990904
58.505 0.0017277
58.7 0.0111646
58.895 0.00663909
59.09 -0.00762319
59.285 -0.00564957
59.48 0.0276164
59.675 0.178957
59.87 0.0464364
60.065 0.0131963
60.26 0.0266409
60.455 0.086277
60.65 0.118605
60.845 0.0570561
61.04 0.016
61.235 0.0111852
61.43 0.0215516
61.625 0.0362234
61.82 0.238686
62.015 0.230611
62.21 0.354727
62.405 0.157961
62.6 0.0085511
62.795 -0.0058633
62.99 0.00216445
63.185 0.00793007
63.38 0.0224381
63.575 0.0483704
63.77 0.0804865
63.965 0.0375987
64.16 -0.00051383
64.355 0.0244156
64.55 0.0884278
64.745 0.107483
64.94 0.0210743
65.135 0.0122189
65.33 -0.00468057
65.525 -0.00551421
65.72 -0.00785541
65.915 0.0165002
66.11 0.0379407
66.305 0.0391289
66.5 0.0528995
66.695 0.104411
66.89 0.043098
67.085 0.00639688
67.28 -0.000998374
67.475 -0.0121823
67.67 0.00876569
67.865 0.00355767
68.06 0.0388001
68.255 0.114731
68.45 0.395363
68.645 0.0461388
68.84 0.0780892
69.035 0.0814229
69.23 0.0732785
69.425 0.0239091
69.62 0.0182541
69.815 -0.00156632
70.01 0.0184952
70.205 0.0388484
70.4 0.188193
70.595 0.0838796
70.79 0.0553564
70.985 0.0128436
71.095 -0.0154914