File: data/xrd/xy/2019-09-05T19_43_09.232228+00_00_LBL_A6.xy
'Id: "" Comment: "Integrate frame Morph_03_001.gfrmwith cursor Wedge Cursor #3" Operator: "UC Berkeley" Anode: "Co" Scantype: "TwoTheta" TimePerStep: "500"
13.835 -0.027791
14.035 0.0881784
14.235 0.06526
14.435 0.0656253
14.635 0.120756
14.835 0.000120538
15.035 -0.0199221
15.235 0.0351994
15.435 -0.00240027
15.635 0.0805302
15.835 0.0366765
16.035 0.167135
16.235 0.0849373
16.435 0.106171
16.635 0.0474416
16.835 0.089798
17.035 0.0551691
17.235 0.00681313
17.435 0.05636
17.635 0.358599
17.835 0.187506
18.035 0.0554909
18.235 0.0457491
18.435 0.0288693
18.635 0.0792694
18.835 0.0834841
19.035 0.0417636
19.235 0.0126345
19.435 0.0244192
19.635 0.0568524
19.835 0.0658809
20.035 0.0387312
20.235 0.0536757
20.435 0.0481181
20.635 0.0607991
20.835 0.00838509
21.035 0.0405034
21.235 0.00655688
21.435 0.0285165
21.635 0.0337339
21.835 0.082643
22.035 0.0835025
22.235 0.0362086
22.435 0.0568483
22.635 0.0397754
22.835 0.0256176
23.035 -0.0118363
23.235 0.0388531
23.435 0.0266079
23.635 0.0403
23.835 0.0166195
24.035 0.0518074
24.235 0.0587497
24.435 0.0626152
24.635 -0.00352765
24.835 0.0599284
25.035 0.0155631
25.235 0.0295023
25.435 0.0192004
25.635 0.0339796
25.835 0.0407424
26.035 0.0369775
26.235 0.129364
26.435 2.74799
26.635 4.41242
26.835 0.120405
27.035 0.330012
27.235 0.106503
27.435 0.0482181
27.635 0.0186756
27.835 0.0233646
28.035 0.0543874
28.235 0.0566884
28.435 0.0232946
28.635 0.0437344
28.835 0.0373472
29.035 -0.000911762
29.235 0.0558356
29.435 0.10209
29.635 0.084636
29.835 -0.00161091
30.035 0.0101811
30.235 0.0901096
30.435 0.146459
30.635 -0.002268
30.835 0.0229291
31.035 0.00857641
31.235 0.0285971
31.435 0.0274369
31.635 0.0493409
31.835 0.220641
32.035 0.368342
32.235 0.0688684
32.435 0.865504
32.635 0.166501
32.835 0.112797
33.035 0.350274
33.235 0.0902199
33.435 0.0132761
33.635 -0.0248906
33.835 0.0138839
34.035 0.0182601
34.235 0.291564
34.435 0.505532
34.635 -0.00217571
34.835 -0.0182771
35.035 0.0459643
35.235 0.283355
35.435 0.568446
35.635 7.20175
35.835 1.44844
36.035 0.417772
36.235 0.0456889
36.435 0.0172623
36.635 0.0154226
36.835 0.0124307
37.035 -0.0111743
37.235 -0.0135075
37.435 0.0529278
37.635 0.0885431
37.835 0.0669359
38.035 0.0144685
38.235 0.0829171
38.435 0.73622
38.635 0.220603
38.835 0.00222348
39.035 -0.0160884
39.235 0.0259011
39.435 0.0595967
39.635 0.0239479
39.835 0.00609046
40.035 0.148908
40.235 0.268144
40.435 0.100885
40.635 0.329507
40.835 0.043592
41.035 -0.00786749
41.235 0.0057547
41.435 0.0192514
41.635 0.037187
41.835 -0.0129094
42.035 0.0083098
42.235 -0.0025863
42.435 0.00255655
42.635 0.096914
42.835 0.076141
43.035 -0.00891079
43.235 -0.00126105
43.435 0.0561979
43.635 0.0864079
43.835 -0.0031539
44.035 0.140379
44.235 0.365661
44.435 0.0796934
44.635 0.0839057
44.835 0.227997
45.035 0.643325
45.235 0.109216
45.435 0.00718261
45.635 0.0317769
45.835 0.0602605
46.035 -0.0119654
46.235 0.0341335
46.435 0.0725339
46.635 0.110506
46.835 0.577722
47.035 0.244999
47.235 0.0419582
47.435 0.0438627
47.635 0.0127347
47.835 -0.0155336
48.035 -0.00425433
48.235 0.0768502
48.435 0.0590551
48.635 0.0543656
48.835 0.120853
49.035 0.0746428
49.235 0.0148854
49.435 0.0639115
49.635 0.101157
49.835 0.0589211
50.035 0.120909
50.235 0.0205329
50.435 -0.012722
50.635 0.00572403
50.835 0.059247
51.035 0.252322
51.235 0.0821835
51.435 -0.00903744
51.635 0.0141814
51.835 0.0302295
52.035 0.0406782
52.235 0.102117
52.435 0.0910788
52.635 -0.00838527
52.835 -0.0129072
53.035 -0.0133937
53.235 7.08186e-05
53.435 0.00837998
53.635 -0.00273309
53.835 -0.0126332
54.035 0.0653865
54.235 0.0794065
54.435 0.00565741
54.635 0.0951425
54.835 0.119763
55.035 -0.0151252
55.235 -0.00463083
55.435 0.0525708
55.635 0.236261
55.835 0.573016
56.035 0.187086
56.235 0.043631
56.435 0.00876536
56.635 0.00174786
56.835 0.00418303
57.035 -0.0179884
57.235 -0.00336938
57.435 0.00469318
57.635 0.0687751
57.835 0.0884579
58.035 0.0681349
58.235 0.0885335
58.435 0.0673636
58.635 0.0279575
58.835 0.00843107
59.035 0.00958925
59.235 0.0194652
59.435 -0.000197424
59.635 -0.00286953
59.835 0.0187119
60.035 -0.00961918
60.235 0.011529
60.435 0.00278722
60.635 0.00577925
60.835 0.03823
61.035 0.0443026
61.235 0.120956
61.435 0.17
61.635 0.0853653
61.835 0.0216801
62.035 0.00048523
62.235 0.0610455
62.435 0.0432196
62.635 0.0179712
62.835 -0.00108371
63.035 0.0461421
63.235 0.118871
63.435 0.0697379
63.635 0.0722679
63.835 0.0122955
64.035 0.00072887
64.235 0.0348531
64.435 0.0390488
64.635 0.194754
64.835 0.551095
65.035 0.53135
65.235 0.0742553
65.435 -0.0107073
65.635 -0.00117905
65.835 0.00223345
66.035 0.0613685
66.235 0.10252
66.435 0.0714173
66.635 0.0186956
66.835 0.00207135
67.035 0.00952118
67.235 0.0230611
67.435 0.0230232
67.635 0.0455557
67.835 0.0793306
68.035 0.104967
68.235 0.188931
68.435 0.0947082
68.635 0.0312452
68.835 0.00423959
69.035 0.000405656
69.235 0.014261
69.435 0.0384544
69.635 0.030509
69.835 0.0365944
70.035 0.0128046
70.235 -0.0109201
70.435 0.00170648
70.635 0.0149513
70.835 0.000119434
71.035 0.0321441
71.235 0.150191
71.435 0.289017
71.635 0.23103
71.835 0.114613
72.035 0.0757501
72.235 0.0323253
72.435 0.00180297
72.635 0.0120797
72.835 0.0405532
73.035 0.00147031
73.15 -0.0168709