File: data/xrd/xy/2019-06-18T19_59_27.923270+00_00_LBL_F1.xy
'Id: "" Comment: "Integrate frame 20190716_acnh3_nprop_4flph_07_002.gfrmwith cursor Wedge Cursor #3" Operator: "UC Berkeley" Anode: "Co" Scantype: "TwoTheta" TimePerStep: "450"
13.905 -0.0294597
14.11 0.120455
14.315 0.0979972
14.52 0.442209
14.725 2.79355
14.93 0.734059
15.135 0.05803
15.34 0.103249
15.545 0.0825817
15.75 0.0481494
15.955 0.0807803
16.16 0.0860769
16.365 0.0968483
16.57 0.0219128
16.775 0.0471324
16.98 0.0321692
17.185 0.0494763
17.39 0.0505022
17.595 -0.00509496
17.8 0.0602902
18.005 0.0430276
18.21 0.0292883
18.415 0.026295
18.62 0.0795118
18.825 0.0954203
19.03 0.052806
19.235 0.0668991
19.44 0.0696761
19.645 0.0231401
19.85 0.0497331
20.055 0.042941
20.26 0.0464193
20.465 0.0514004
20.67 0.0711889
20.875 0.00528278
21.08 0.0713664
21.285 0.0504491
21.49 0.0869693
21.695 0.0448201
21.9 0.0147088
22.105 0.082146
22.31 0.0337097
22.515 0.0572735
22.72 0.0164198
22.925 0.0664928
23.13 0.0254314
23.335 0.031401
23.54 0.0458489
23.745 0.0544495
23.95 0.0308012
24.155 0.0504038
24.36 -0.000777614
24.565 -0.00475168
24.77 0.105929
24.975 0.0316038
25.18 0.0455084
25.385 0.0445455
25.59 0.0276505
25.795 0.0421914
26 -0.0172141
26.205 0.111962
26.41 0.0410164
26.615 0.0390789
26.82 0.03043
27.025 0.0373713
27.23 0.0184504
27.435 0.011868
27.64 0.0118179
27.845 0.00213272
28.05 0.00255279
28.255 0.00308282
28.46 0.00691612
28.665 0.0860446
28.87 0.0610165
29.075 0.0324727
29.28 0.0168199
29.485 0.0913208
29.69 0.951413
29.895 0.395891
30.1 1.02478
30.305 3.29214
30.51 0.116251
30.715 0.0658772
30.92 0.0870718
31.125 0.0303716
31.33 0.0188097
31.535 0.0107641
31.74 0.0205642
31.945 0.0430954
32.15 0.0147249
32.355 0.0442606
32.56 0.00560069
32.765 -0.00453379
32.97 0.059376
33.175 -0.0132181
33.38 0.0484685
33.585 0.0397215
33.79 0.0192704
33.995 0.0169485
34.2 0.0033848
34.405 0.0222697
34.61 0.00266309
34.815 0.0385366
35.02 0.0183439
35.225 0.0145318
35.43 0.00813732
35.635 0.0274761
35.84 0.0188729
36.045 0.045236
36.25 0.0278653
36.455 0.00964998
36.66 0.0215024
36.865 -0.00561023
37.07 0.0210035
37.275 0.0283512
37.48 0.0192443
37.685 0.0106969
37.89 0.0161399
38.095 0.00528222
38.3 0.0116064
38.505 0.0229439
38.71 0.0128367
38.915 0.00675285
39.12 0.0484376
39.325 0.0204918
39.53 0.034827
39.735 0.180623
39.94 1.8548
40.145 3.52454
40.35 0.35859
40.555 0.0578897
40.76 0.0429064
40.965 0.0239598
41.17 -0.0141316
41.375 0.012307
41.58 0.0160236
41.785 0.0457045
41.99 0.0268694
42.195 0.0214523
42.4 0.00358658
42.605 0.0362943
42.81 0.00814836
43.015 0.0455753
43.22 0.00273947
43.425 0.000178062
43.63 0.0166257
43.835 0.0372284
44.04 -0.00730619
44.245 0.00751625
44.45 0.0292939
44.655 0.0374682
44.86 0.170405
45.065 1.78237
45.27 4.42511
45.475 1.17378
45.68 0.0845324
45.885 0.0350212
46.09 0.258896
46.295 0.783121
46.5 0.215063
46.705 0.0164601
46.91 0.0184146
47.115 -0.0129313
47.32 -0.0141201
47.525 0.011981
47.73 0.0381126
47.935 0.0140303
48.14 0.0163773
48.345 -0.0144038
48.55 0.0048902
48.755 0.119883
48.96 0.195735
49.165 0.0290878
49.37 0.0109072
49.575 0.0122939
49.78 -0.00564226
49.985 0.00163605
50.19 -0.00753893
50.395 -0.00458091
50.6 -0.00150344
50.805 -0.00243262
51.01 0.0162613
51.215 0.0294615
51.42 0.0161913
51.625 0.00432149
51.83 -0.00472144
52.035 -0.014477
52.24 0.0102264
52.445 0.0241513
52.65 0.081549
52.855 0.522948
53.06 1.55127
53.265 0.967743
53.47 0.101035
53.675 0.0173357
53.88 0.00261985
54.085 0.00403619
54.29 0.0194426
54.495 -0.0144904
54.7 -0.000562013
54.905 0.014971
55.11 -0.00999559
55.315 -0.0193812
55.52 -0.00351072
55.725 -0.018062
55.93 0.0669921
56.135 0.215388
56.34 0.518495
56.545 0.186141
56.75 0.0104529
56.955 0.0235632
57.16 -0.0134835
57.365 0.0188664
57.57 -0.00848967
57.775 0.0189793
57.98 -0.00718846
58.185 -0.0104307
58.39 -0.00138181
58.595 0.0119205
58.8 -0.00138487
59.005 0.0215128
59.21 0.00984223
59.415 0.0123046
59.62 -0.00514341
59.825 0.00980103
60.03 0.015981
60.235 0.00623967
60.44 0.00789424
60.645 -0.00050929
60.85 -0.00535986
61.055 0.021685
61.26 0.149951
61.465 0.760239
61.67 1.28532
61.875 1.51915
62.08 0.307518
62.285 0.0323471
62.49 0.0377498
62.695 0.172848
62.9 0.40068
63.105 0.186006
63.31 0.00489877
63.515 0.00526503
63.72 0.00253582
63.925 0.0261706
64.13 -0.00474735
64.335 -0.00238229
64.54 0.00801739
64.745 -0.00774152
64.95 0.041286
65.155 -0.00888365
65.36 0.0329909
65.565 0.00138651
65.77 0.00588308
65.975 0.0235927
66.18 0.0268421
66.385 0.107237
66.59 0.280447
66.795 0.421033
67 0.241888
67.205 0.0332393
67.41 -0.00531167
67.615 0.00548283
67.82 0.0210653
68.025 0.0513621
68.23 0.168439
68.435 0.185088
68.64 0.0490673
68.845 -0.00358694
69.05 0.0167453
69.255 0.0115987
69.46 0.023329
69.665 0.0014936
69.87 -0.00656041
70.075 0.00436607
70.28 0.0263588
70.485 0.0225867
70.69 -0.0140211
70.895 -0.00649799
71.1 0.01748
71.305 -0.00822772
71.51 0.0136316
71.715 0.0178703
71.92 -0.0106316
72.125 -0.00458129
72.33 0.00959869
72.535 0.0218732
72.74 0.0428712
72.945 0.138524
73.15 0.178289
73.355 0.113149
73.56 0.0417403
73.765 0.0159715
73.97 0.0222473
74.055 -0.0162051