File: data/xrd/xy/2019-06-19T14_53_56.517003+00_00_LBL_D1.xy
'Id: "" Comment: "Integrate frame perovskite_01_001.gfrmwith cursor Wedge Cursor #1" Operator: "UC Berkeley" Anode: "Co" Scantype: "TwoTheta" TimePerStep: "400"
13.87 -0.0306558
14.06 0.0209301
14.25 0.0274191
14.44 0.0804866
14.63 0.108505
14.82 0.0106881
15.01 0.0430815
15.2 0.0163887
15.39 0.0556439
15.58 -0.0258417
15.77 0.0468967
15.96 0.0855047
16.15 0.0256675
16.34 0.0238207
16.53 0.0703607
16.72 0.02998
16.91 0.0271926
17.1 -0.014738
17.29 0.0352928
17.48 0.0292667
17.67 0.0181491
17.86 0.0635761
18.05 0.0137838
18.24 0.097868
18.43 0.0173927
18.62 0.0745386
18.81 0.0290773
19 0.0497435
19.19 0.0628267
19.38 -0.00518191
19.57 0.094526
19.76 0.0731826
19.95 0.0598013
20.14 0.0580599
20.33 0.015121
20.52 0.0215618
20.71 0.0176152
20.9 0.0155106
21.09 0.0386121
21.28 0.00840033
21.47 0.0431688
21.66 0.0836453
21.85 0.0301637
22.04 0.0158944
22.23 0.0825728
22.42 0.0407644
22.61 0.046566
22.8 0.158594
22.99 0.0888328
23.18 0.105382
23.37 0.0822278
23.56 0.084612
23.75 0.067581
23.94 0.129525
24.13 0.0422162
24.32 0.0996841
24.51 0.0759828
24.7 0.0394272
24.89 0.0687866
25.08 0.0571916
25.27 0.0734294
25.46 0.0880191
25.65 0.099016
25.84 0.0537133
26.03 0.0464666
26.22 0.0295398
26.41 0.0504177
26.6 0.0287301
26.79 0.0589094
26.98 0.0446217
27.17 0.0350115
27.36 -0.01189
27.55 -0.0126596
27.74 -0.00790193
27.93 0.0389247
28.12 0.0343849
28.31 -0.000454703
28.5 -0.0219456
28.69 0.055059
28.88 0.123755
29.07 0.0643028
29.26 0.138764
29.45 0.496886
29.64 0.0585733
29.83 0.0331892
30.02 0.0198655
30.21 0.00186453
30.4 -0.0185791
30.59 0.00958612
30.78 0.0276362
30.97 0.0045216
31.16 0.0124135
31.35 -0.0133085
31.54 -7.39724e-05
31.73 0.0282819
31.92 0.0415445
32.11 0.003649
32.3 0.0227286
32.49 0.0111674
32.68 0.0110136
32.87 0.0235361
33.06 0.0388033
33.25 0.00534866
33.44 -0.0292377
33.63 0.00736894
33.82 -0.0078928
34.01 0.0298594
34.2 0.0143586
34.39 0.0649453
34.58 0.267723
34.77 0.213037
34.96 0.103684
35.15 0.259062
35.34 0.167461
35.53 0.0215917
35.72 -0.00299589
35.91 -0.012974
36.1 0.00861773
36.29 0.0241375
36.48 -0.0226359
36.67 0.00733716
36.86 0.0352191
37.05 0.162882
37.24 0.226362
37.43 0.0664688
37.62 0.0700396
37.81 0.0268899
38 0.0216109
38.19 -0.0050688
38.38 0.0132644
38.57 0.00762998
38.76 0.016184
38.95 -0.00988533
39.14 -0.00285679
39.33 0.00897628
39.52 0.00668199
39.71 0.00733777
39.9 0.0128598
40.09 0.113272
40.28 0.04326
40.47 0.016333
40.66 0.0136286
40.85 0.0176715
41.04 0.00411783
41.23 0.00797927
41.42 0.00863774
41.61 0.0244195
41.8 0.0121087
41.99 0.00907544
42.18 0.0103508
42.37 0.0176971
42.56 0.000338078
42.75 0.0135999
42.94 0.0120587
43.13 0.00441501
43.32 0.00557429
43.51 0.0275314
43.7 0.0421749
43.89 0.0383469
44.08 0.128107
44.27 0.0684365
44.46 0.0317079
44.65 0.0283941
44.84 0.00364213
45.03 0.00872115
45.22 0.0109677
45.41 0.0134818
45.6 0.0276804
45.79 0.0140881
45.98 -0.0134763
46.17 0.0183038
46.36 0.128154
46.55 0.267876
46.74 0.243723
46.93 0.0662643
47.12 0.0431866
47.31 0.014718
47.5 0.0748235
47.69 0.124372
47.88 0.066503
48.07 0.0445137
48.26 0.134832
48.45 0.122046
48.64 0.314179
48.83 0.238307
49.02 0.0505207
49.21 0.0167437
49.4 -0.00336019
49.59 -0.00365047
49.78 0.0185193
49.97 -0.000870956
50.16 -0.0196567
50.35 0.0120694
50.54 0.0482006
50.73 0.0419449
50.92 0.00500291
51.11 0.0183006
51.3 -0.00262022
51.49 -0.00971693
51.68 -0.00121451
51.87 -0.00125634
52.06 -0.00749704
52.25 0.00625846
52.44 -0.00666387
52.63 0.00633939
52.82 0.00981655
53.01 -0.0128568
53.2 -0.00904251
53.39 0.000237429
53.58 0.0217102
53.77 -0.0233624
53.96 -0.000516772
54.15 -0.00408712
54.34 0.0201249
54.53 0.0232317
54.72 0.0280678
54.91 0.0174125
55.1 -0.016586
55.29 0.000202914
55.48 0.00668238
55.67 0.029496
55.86 0.0751793
56.05 0.0641646
56.24 0.026819
56.43 0.0096096
56.62 0.0225521
56.81 0.0338712
57 -0.012001
57.19 0.0153337
57.38 0.0216549
57.57 -0.0217704
57.76 0.0155208
57.95 0.00563502
58.14 -0.00692523
58.33 0.00982013
58.52 0.0212494
58.71 0.00407391
58.9 -0.000656752
59.09 -0.00212224
59.28 0.000843449
59.47 0.0259915
59.66 0.0262287
59.85 0.0314067
60.04 0.023118
60.23 0.0357354
60.42 0.0109952
60.61 -0.00442173
60.8 0.0205692
60.99 0.0450111
61.18 0.0660406
61.37 0.00351072
61.56 0.0285341
61.75 0.0220562
61.94 -0.0154318
62.13 -0.00713441
62.32 0.00364025
62.51 0.000905479
62.7 0.00757171
62.89 -0.00250159
63.08 0.0477155
63.27 0.118036
63.46 0.00942754
63.65 -0.00972295
63.84 -0.0078716
64.03 0.000383764
64.22 -0.00792785
64.41 0.018492
64.6 0.00830611
64.79 0.0177366
64.98 0.024567
65.17 0.0378109
65.36 0.0309134
65.55 -0.00161534
65.74 6.61309e-05
65.93 0.0199485
66.12 0.0209311
66.31 0.0111645
66.5 0.0130769
66.69 -0.00865381
66.88 0.00827468
67.07 -0.0105551
67.26 0.00757911
67.45 0.00065497
67.64 0.0107438
67.83 -0.0137617
68.02 0.0177309
68.21 0.00565075
68.4 0.0190808
68.59 -0.00655983
68.78 0.0236793
68.97 0.0473642
69.16 0.0617376
69.35 0.0312629
69.54 0.0338209
69.73 0.0140575
69.92 0.0241576
70.11 -0.012183
70.26 -0.0203634