File: data/xrd/xy/2019-06-19T14_53_56.517003+00_00_LBL_D5.xy
'Id: "" Comment: "Integrate frame perovskite_02_001.gfrmwith cursor Wedge Cursor #2" Operator: "UC Berkeley" Anode: "Co" Scantype: "TwoTheta" TimePerStep: "400"
14.125 -0.0306055
14.305 -0.00813361
14.485 0.0583438
14.665 -0.0127031
14.845 0.0536344
15.025 0.0438129
15.205 0.0371652
15.385 0.0631147
15.565 0.0913897
15.745 0.076529
15.925 0.027623
16.105 0.0376607
16.285 0.0570254
16.465 0.0509026
16.645 0.00631393
16.825 0.0217896
17.005 0.0309883
17.185 0.0529737
17.365 0.0544537
17.545 0.0669972
17.725 0.0551936
17.905 0.0159315
18.085 0.0281295
18.265 0.036977
18.445 0.0279383
18.625 0.0472861
18.805 0.0116433
18.985 0.0341071
19.165 0.0254204
19.345 0.0579058
19.525 0.0411584
19.705 0.0026494
19.885 -0.00945599
20.065 -0.000749727
20.245 0.0195413
20.425 -0.00375463
20.605 0.0242677
20.785 -0.00243498
20.965 0.0317104
21.145 0.0264745
21.325 0.038094
21.505 0.0244752
21.685 0.0340351
21.865 0.0125296
22.045 0.0301843
22.225 0.0259055
22.405 0.0158895
22.585 0.00839189
22.765 0.0606757
22.945 0.0100021
23.125 0.0239943
23.305 0.0366952
23.485 0.0380285
23.665 0.00867512
23.845 0.00724778
24.025 0.027595
24.205 0.0176648
24.385 0.068149
24.565 0.0314576
24.745 0.0177619
24.925 0.0584991
25.105 0.0553376
25.285 0.0346502
25.465 0.0237281
25.645 0.365027
25.825 0.193744
26.005 0.0120188
26.185 0.0236894
26.365 0.044017
26.545 0.019454
26.725 0.0618088
26.905 0.0127055
27.085 0.0116873
27.265 0.0436125
27.445 0.027783
27.625 0.0233071
27.805 0.0351594
27.985 0.0181504
28.165 0.0318906
28.345 0.0518018
28.525 0.112753
28.705 0.122208
28.885 0.358312
29.065 0.303612
29.245 0.166175
29.425 0.721664
29.605 0.441463
29.785 0.107205
29.965 0.0541634
30.145 0.0357866
30.325 0.0192099
30.505 0.0378126
30.685 0.0210109
30.865 0.0251696
31.045 0.01748
31.225 0.0721049
31.405 0.0233276
31.585 0.0408194
31.765 0.0224629
31.945 0.0228401
32.125 0.00121527
32.305 0.00541329
32.485 0.000635408
32.665 0.0240706
32.845 0.0238881
33.025 0.0370995
33.205 0.0583307
33.385 0.158582
33.565 0.0823929
33.745 0.0236269
33.925 0.0164571
34.105 0.00592448
34.285 0.046041
34.465 0.28245
34.645 1.14597
34.825 0.333277
35.005 0.0935445
35.185 0.18217
35.365 0.127273
35.545 0.0466892
35.725 0.026106
35.905 -0.00714399
36.085 0.0110672
36.265 0.00475234
36.445 0.0142745
36.625 0.00186509
36.805 0.0413322
36.985 0.244024
37.165 1.05851
37.345 0.530114
37.525 0.149461
37.705 0.101825
37.885 0.0319218
38.065 0.0556888
38.245 0.0444961
38.425 0.0349678
38.605 0.022756
38.785 -0.00196999
38.965 -0.000637203
39.145 -0.0146709
39.325 -0.00206326
39.505 -0.0034352
39.685 0.00222784
39.865 0.0086265
40.045 0.034086
40.225 0.067757
40.405 0.0266572
40.585 -0.0176532
40.765 0.00663193
40.945 0.0107663
41.125 0.121265
41.305 0.224134
41.485 0.0871453
41.665 0.0553461
41.845 0.0260316
42.025 0.0164862
42.205 -0.00140284
42.385 0.0270042
42.565 0.0130574
42.745 0.0208413
42.925 0.00480035
43.105 0.019496
43.285 0.0210544
43.465 0.0238656
43.645 0.0429704
43.825 0.0267997
44.005 0.196374
44.185 0.200573
44.365 0.0348637
44.545 0.0121912
44.725 0.0183664
44.905 -0.00266278
45.085 -0.00222342
45.265 0.0122821
45.445 0.0261435
45.625 0.0137613
45.805 0.105669
45.985 0.164532
46.165 0.114183
46.345 0.092973
46.525 0.207507
46.705 0.432709
46.885 0.253226
47.065 0.133544
47.245 0.0682224
47.425 0.0990964
47.605 0.460749
47.785 0.383917
47.965 0.0954388
48.145 0.144486
48.325 0.211832
48.505 0.154472
48.685 0.266822
48.865 0.136905
49.045 0.0425666
49.225 0.0196722
49.405 0.0165605
49.585 0.0102319
49.765 0.0192245
49.945 -0.00513435
50.125 -0.0085435
50.305 0.00699806
50.485 0.0219272
50.665 0.0186872
50.845 -0.00519618
51.025 -0.005192
51.205 -0.00587376
51.385 -0.0130824
51.565 -0.0154637
51.745 0.00204718
51.925 0.00374402
52.105 0.00959614
52.285 -0.00351345
52.465 0.0777681
52.645 0.61193
52.825 0.588784
53.005 0.113163
53.185 0.0250898
53.365 0.0523307
53.545 0.0712418
53.725 0.0327125
53.905 0.0238295
54.085 0.0396299
54.265 0.097882
54.445 0.474214
54.625 0.895035
54.805 0.360905
54.985 0.0737817
55.165 0.0229658
55.345 -0.0131738
55.525 -0.00301936
55.705 0.0108016
55.885 0.0305949
56.065 0.0658484
56.245 0.0655099
56.425 0.0464089
56.605 0.0526288
56.785 0.0355011
56.965 0.0158394
57.145 -0.00179213
57.325 0.00850302
57.505 0.00574358
57.685 -0.0112547
57.865 0.00173284
58.045 0.0188484
58.225 0.0285121
58.405 0.0237003
58.585 0.00917893
58.765 0.00745134
58.945 0.0200457
59.125 0.0559489
59.305 0.122159
59.485 0.0725642
59.665 0.0467969
59.845 0.0590687
60.025 0.0402085
60.205 0.031331
60.385 0.0258302
60.565 0.0351403
60.745 0.0310921
60.925 0.0299944
61.105 0.0768187
61.285 0.0791314
61.465 0.0267727
61.645 0.0210315
61.825 0.0171927
62.005 0.000578886
62.185 -0.00996558
62.365 -0.00283315
62.545 0.00605316
62.725 -0.00581352
62.905 -0.010956
63.085 0.00253958
63.265 -0.0120253
63.445 0.0104983
63.625 0.00239836
63.805 0.0144707
63.985 0.0267843
64.165 0.0170816
64.345 0.00330597
64.525 0.0118194
64.705 0.0234614
64.885 0.155692
65.065 0.220627
65.245 0.121181
65.425 0.0279621
65.605 0.00587005
65.785 0.0065165
65.965 0.019593
66.145 0.0245587
66.325 0.0299407
66.505 0.00520506
66.685 0.00356414
66.865 0.0153426
67.045 -0.00836923
67.225 -0.0067924
67.405 -0.00614681
67.585 -0.00932393
67.62 -0.0188773