File: data/xrd/xy/2019-07-01T19_39_31.550325+00_00_LBL_H4.xy
'Id: "" Comment: "Integrate frame 20190716_acnh3_nprop_4flph_04_002.gfrmwith cursor Wedge Cursor #2" Operator: "UC Berkeley" Anode: "Co" Scantype: "TwoTheta" TimePerStep: "450"
20.73 -0.0333218
20.915 0.10311
21.1 0.069204
21.285 0.0502521
21.47 0.0384877
21.655 0.0224473
21.84 0.0717922
22.025 0.125164
22.21 0.048213
22.395 0.115425
22.58 0.0591261
22.765 0.250284
22.95 0.146202
23.135 0.0782306
23.32 0.0263308
23.505 0.0696306
23.69 0.11184
23.875 -0.00880077
24.06 0.0832849
24.245 0.038907
24.43 0.00664128
24.615 0.0386836
24.8 0.0642394
24.985 0.0355494
25.17 -0.0120301
25.355 0.0191424
25.54 0.195377
25.725 0.851568
25.91 0.0136072
26.095 0.01906
26.28 0.0157856
26.465 0.0266906
26.65 0.0478067
26.835 0.029844
27.02 0.0419783
27.205 0.0511247
27.39 0.0649015
27.575 0.0784329
27.76 0.069171
27.945 0.0170945
28.13 0.0504542
28.315 0.0478078
28.5 0.00115869
28.685 0.0292315
28.87 0.254875
29.055 0.309274
29.24 0.424769
29.425 1.62831
29.61 0.906527
29.795 0.268833
29.98 0.0250405
30.165 0.0197815
30.35 -0.00574296
30.535 -0.00449575
30.72 -0.0135218
30.905 0.0178848
31.09 0.0196664
31.275 0.0311048
31.46 0.0172833
31.645 0.108541
31.83 0.0644688
32.015 0.0695343
32.2 0.00793981
32.385 0.0259407
32.57 0.0206374
32.755 0.0406355
32.94 0.0570833
33.125 0.0340942
33.31 0.0540502
33.495 -0.0279995
33.68 0.00557444
33.865 0.0358623
34.05 0.0499587
34.235 0.0780175
34.42 0.223877
34.605 1.05501
34.79 0.654253
34.975 0.27134
35.16 0.572358
35.345 0.425725
35.53 0.153262
35.715 0.0383391
35.9 0.00289392
36.085 -0.00215373
36.27 -0.0107581
36.455 0.00943198
36.64 0.0125481
36.825 0.0509113
37.01 0.388327
37.195 1.14612
37.38 0.556469
37.565 0.253297
37.75 0.14196
37.935 0.0591332
38.12 0.0186734
38.305 0.0337898
38.49 0.00240079
38.675 0.0274605
38.86 0.0232533
39.045 -0.0131762
39.23 0.00794443
39.415 -0.0127225
39.6 -0.0152464
39.785 0.0317464
39.97 0.0408813
40.155 0.0744883
40.34 0.0286033
40.525 0.00915606
40.71 0.000216546
40.895 0.00178211
41.08 0.00944638
41.265 0.0939364
41.45 0.0280696
41.635 -0.0122189
41.82 0.0220227
42.005 0.0284448
42.19 0.0116655
42.375 0.0136498
42.56 0.0097727
42.745 0.0145516
42.93 0.00411759
43.115 -0.016922
43.3 0.0215069
43.485 0.0288955
43.67 0.0322197
43.855 0.0910989
44.04 0.211247
44.225 0.175664
44.41 0.035665
44.595 0.0402924
44.78 0.0302425
44.965 0.0293429
45.15 0.0251142
45.335 0.0334264
45.52 -0.00939052
45.705 -0.00142088
45.89 0.0393049
46.075 0.047269
46.26 0.1381
46.445 0.299835
46.63 0.564422
46.815 0.44816
47 0.220935
47.185 0.032653
47.37 -0.0270232
47.555 0.258603
47.74 0.331935
47.925 0.119444
48.11 0.188555
48.295 0.233305
48.48 0.279839
48.665 0.303115
48.85 0.207083
49.035 0.072999
49.22 0.0314206
49.405 0.0252429
49.59 -0.00506339
49.775 -0.00161541
49.96 0.027539
50.145 0.0186496
50.33 0.0215502
50.515 0.0405184
50.7 0.0336162
50.885 0.0122171
51.07 0.0121563
51.255 -0.016345
51.44 0.00876688
51.625 0.0064588
51.81 0.0157307
51.995 -0.0107193
52.18 -0.0131791
52.365 0.0227014
52.55 0.0488323
52.735 0.171773
52.92 0.124656
53.105 0.043962
53.29 0.00852116
53.475 0.00889385
53.66 0.0179941
53.845 0.0167281
54.03 0.0346086
54.215 0.0076532
54.4 0.179417
54.585 0.364367
54.77 0.260852
54.955 0.10304
55.14 -0.00419876
55.325 -0.00170806
55.51 0.0310179
55.695 0.0467821
55.88 0.0938888
56.065 0.128846
56.25 0.139946
56.435 0.0600381
56.62 0.025673
56.805 0.0133614
56.99 0.0024872
57.175 0.0110824
57.36 0.0028391
57.545 0.0300105
57.73 0.00209404
57.915 0.0196015
58.1 0.0313341
58.285 0.0181763
58.47 0.00698593
58.655 0.0117737
58.84 0.0407057
59.025 0.0319539
59.21 -0.0210498
59.395 0.0761766
59.58 0.0963036
59.765 0.0933774
59.95 0.062106
60.135 0.0373458
60.32 0.00166265
60.505 0.0279137
60.69 -0.00712018
60.875 0.0960553
61.06 0.117213
61.245 0.0747089
61.43 0.0756111
61.615 0.0676377
61.8 0.0249196
61.985 0.0604247
62.17 0.0387214
62.355 0.0344929
62.54 0.0240306
62.725 0.0217909
62.91 0.00189042
63.095 -0.00912332
63.28 -0.00225203
63.465 0.0273535
63.65 0.0218791
63.835 0.0106933
64.02 -0.00850423
64.205 0.0195492
64.39 0.0233415
64.575 -0.00754317
64.76 0.0132386
64.945 0.0738897
65.13 0.114979
65.315 0.0199053
65.5 0.00326926
65.685 0.0102815
65.87 0.0358485
66.055 0.0350304
66.24 0.0373029
66.425 0.0131865
66.61 0.0326181
66.795 0.0117874
66.98 0.0262588
67.165 0.0145589
67.35 0.00769396
67.535 -0.000983647
67.72 0.00313705
67.905 0.0266336
68.09 0.0218683
68.275 0.0147106
68.46 0.019093
68.645 0.0138761
68.83 0.040945
69.015 0.0696196
69.2 0.0725688
69.385 0.0762937
69.57 0.066982
69.755 0.0545776
69.94 0.0374466
70.125 0.0362694
70.31 0.0198804
70.495 -0.00766396
70.68 0.00478092
70.865 0.0117748
71.05 0.00891466
71.235 0.0109522
71.42 -0.00102819
71.605 0.0430574
71.79 0.00334639
71.975 -0.00624196
72.16 0.0212294
72.345 0.00834399
72.53 0.0349641
72.715 0.0305945
72.9 0.0585554
73.085 0.0348112
73.27 0.0545232
73.455 0.0314546
73.64 0.0268044
73.825 0.0298673
74.01 0.0503994
74.195 0.00325541
74.38 0.0259615
74.565 0.019502
74.75 0.00613652
74.82 -0.0205458