File: data/xrd/xy/2019-08-08T16_56_58.410591+00_00_LBL_C7.xy
'Id: "" Comment: "Integrate frame 4fluorobenzyl_03_001.gfrmwith cursor Wedge Cursor #3" Operator: "UC Berkeley" Anode: "Co" Scantype: "TwoTheta" TimePerStep: "500"
13.315 -0.0316202
13.52 0.622903
13.725 0.606298
13.93 -0.00905325
14.135 0.0434013
14.34 0.0584857
14.545 0.0255582
14.75 0.131276
14.955 0.0669716
15.16 0.0708743
15.365 0.0647732
15.57 0.0712326
15.775 0.057183
15.98 0.0418745
16.185 0.0100363
16.39 0.0515382
16.595 0.0137954
16.8 -0.0140306
17.005 0.0336951
17.21 -0.0094081
17.415 0.0473652
17.62 0.0179252
17.825 0.0993675
18.03 0.0803126
18.235 -0.0262355
18.44 0.0715987
18.645 0.113157
18.85 0.0687061
19.055 0.0791963
19.26 0.0225216
19.465 0.0295248
19.67 0.0332284
19.875 0.0413264
20.08 0.0126822
20.285 0.0213662
20.49 0.00165024
20.695 0.0246864
20.9 -0.00664971
21.105 0.0503379
21.31 0.0503111
21.515 0.00467943
21.72 0.066964
21.925 0.0294639
22.13 0.0116579
22.335 0.0380883
22.54 0.0533694
22.745 0.0642684
22.95 0.0332397
23.155 0.0368443
23.36 0.140888
23.565 1.30362
23.77 0.144749
23.975 0.0713272
24.18 0.0619448
24.385 0.0308611
24.59 0.0955288
24.795 0.0152202
25 0.0310684
25.205 0.0753454
25.41 0.0453613
25.615 0.0214718
25.82 0.0643325
26.025 0.0767169
26.23 0.00738072
26.435 0.043758
26.64 0.0330723
26.845 0.0367792
27.05 0.0321864
27.255 0.0625362
27.46 0.0829158
27.665 0.0188141
27.87 0.0395079
28.075 -0.000469487
28.28 0.0580532
28.485 0.0121676
28.69 0.097142
28.895 0.0287404
29.1 0.0457813
29.305 0.026623
29.51 0.0356944
29.715 0.0920381
29.92 0.203707
30.125 2.53997
30.33 0.443653
30.535 0.0452022
30.74 0.00224937
30.945 0.0179636
31.15 0.0405526
31.355 0.0332938
31.56 -0.00311005
31.765 0.0586757
31.97 0.0400598
32.175 0.0174146
32.38 0.0314941
32.585 0.0546997
32.79 0.0218465
32.995 0.0179744
33.2 0.0163081
33.405 0.00486445
33.61 0.0234588
33.815 -0.0165681
34.02 0.0315688
34.225 0.00380829
34.43 0.0385807
34.635 0.0919751
34.84 0.479802
35.045 0.0878739
35.25 0.00148487
35.455 0.000993801
35.66 0.0193526
35.865 0.0396011
36.07 0.205844
36.275 2.70683
36.48 2.04066
36.685 0.104043
36.89 0.0157438
37.095 0.0125415
37.3 0.0501977
37.505 0.446158
37.71 0.136515
37.915 -0.017968
38.12 0.0361694
38.325 0.0304151
38.53 0.172678
38.735 0.106838
38.94 0.0323079
39.145 0.0221235
39.35 0.0171737
39.555 0.0160836
39.76 -0.00956902
39.965 0.0493331
40.17 0.058444
40.375 -0.0108024
40.58 0.0132606
40.785 0.0215706
40.99 0.0257061
41.195 0.0441495
41.4 1.15256
41.605 0.721891
41.81 0.0397937
42.015 0.040188
42.22 0.0283004
42.425 0.0239989
42.63 0.0507159
42.835 0.023266
43.04 -0.015006
43.245 0.0137037
43.45 0.0338854
43.655 0.00438769
43.86 -0.00155075
44.065 -0.00137882
44.27 0.0272798
44.475 0.00355185
44.68 0.116302
44.885 0.119172
45.09 0.0106947
45.295 0.0375704
45.5 0.000784542
45.705 -0.00455114
45.91 -0.0206914
46.115 0.0379683
46.32 0.0797957
46.525 0.0154651
46.73 0.00575083
46.935 0.0206764
47.14 0.00970295
47.345 0.0479784
47.55 0.0805226
47.755 0.202469
47.96 0.39869
48.165 4.07532
48.37 1.6763
48.575 0.175576
48.78 0.117631
48.985 0.117639
49.19 0.241832
49.395 0.0996917
49.6 0.0166222
49.805 0.0450518
50.01 0.1846
50.215 1.15822
50.42 2.07468
50.625 0.214287
50.83 0.0437319
51.035 0.0161651
51.24 -0.000705884
51.445 0.0130221
51.65 0.0395647
51.855 0.105996
52.06 0.166445
52.265 0.10365
52.47 0.00334757
52.675 0.00207801
52.88 0.017967
53.085 0.00945233
53.29 -0.00870355
53.495 0.014177
53.7 0.042675
53.905 0.0618768
54.11 0.0384648
54.315 -0.00940089
54.52 -0.00458872
54.725 -0.0152471
54.93 0.0071869
55.135 0.0491534
55.34 0.0125139
55.545 0.0225052
55.75 0.0132183
55.955 0.00708988
56.16 0.0160415
56.365 0.0530048
56.57 0.0153217
56.775 0.0289941
56.98 0.0626664
57.185 0.054886
57.39 0.0631382
57.595 0.0883239
57.8 0.434346
58.005 1.08628
58.21 0.220209
58.415 0.0463958
58.62 0.0158825
58.825 -0.00623573
59.03 0.0424599
59.235 -0.00168937
59.44 0.0387256
59.645 0.0123697
59.85 0.0283762
60.055 0.0210669
60.26 -0.0108582
60.465 0.0201911
60.67 0.0120569
60.875 0.0136618
61.08 0.030826
61.285 0.00445612
61.49 0.0756013
61.695 0.17349
61.9 0.627099
62.105 0.392751
62.31 0.0576141
62.515 0.177287
62.72 0.166486
62.925 0.121595
63.13 0.0306254
63.335 0.00168869
63.54 0.0447937
63.745 0.0166989
63.95 -1.25141e-05
64.155 0.00731191
64.36 0.00170762
64.565 0.0264075
64.77 0.0293224
64.975 0.0800865
65.18 0.0380754
65.385 0.03187
65.59 0.0596121
65.795 0.0103721
66 0.0145291
66.205 0.000841362
66.41 0.0191415
66.615 0.01704
66.82 0.0090002
67.025 -0.000911223
67.23 0.00319557
67.435 0.00853366
67.64 0.0653182
67.845 0.0413273
68.05 0.0498915
68.255 0.0409227
68.46 -0.0162215
68.665 -0.00057201
68.87 0.0205944
69.075 -0.00274706
69.28 0.00475771
69.485 -0.00834357
69.69 0.027882
69.895 0.0148429
70.1 0.0447053
70.305 0.00715732
70.51 -0.00885319
70.715 0.00936303
70.92 0.0672657
71.125 0.282039
71.33 0.458937
71.535 0.286207
71.74 0.0511441
71.945 0.0029861
72.15 0.0163592
72.355 0.0118963
72.56 0.0159421
72.765 -0.00514818
72.97 0.00669351
73.175 0.0219293
73.38 0.0797526
73.585 0.0984482
73.79 0.0140465
73.995 -0.00153283
74.2 0.00664062
74.38 -0.0154669