File: data/xrd/xy/2019-09-18T20_27_33.741387+00_00_LBL_H1.xy
'Id: "" Comment: "Integrate frame butane14dia1_00_003.gfrmwith cursor Wedge Cursor #1" Operator: "UC Berkeley" Anode: "Co" Scantype: "TwoTheta" TimePerStep: "600"
13.73 -0.0251194
13.92 0.0589643
14.11 0.0339752
14.3 -0.00880391
14.49 0.0648893
14.68 0.0702159
14.87 0.0152655
15.06 0.0584653
15.25 0.0551959
15.44 0.0557526
15.63 0.00676539
15.82 0.0383638
16.01 0.0182086
16.2 0.0461243
16.39 0.0189746
16.58 0.0117244
16.77 0.207248
16.96 0.199659
17.15 0.164096
17.34 0.0245405
17.53 0.0351652
17.72 0.015934
17.91 0.038801
18.1 0.0773481
18.29 1.12136
18.48 1.22712
18.67 0.111689
18.86 0.00835779
19.05 0.058929
19.24 0.0682481
19.43 0.109299
19.62 0.100313
19.81 -0.00399934
20 0.0152909
20.19 -0.00452208
20.38 0.0241691
20.57 0.0180714
20.76 0.047841
20.95 0.0218465
21.14 0.0112532
21.33 0.0341692
21.52 0.0249763
21.71 0.0312562
21.9 0.0212383
22.09 0.00969769
22.28 0.0481982
22.47 0.0266801
22.66 0.0267353
22.85 0.0236878
23.04 0.0204322
23.23 0.029677
23.42 0.0627585
23.61 0.282164
23.8 0.225931
23.99 0.0684441
24.18 0.095565
24.37 0.359459
24.56 5.47269
24.75 3.06056
24.94 0.148681
25.13 0.0525331
25.32 0.0126432
25.51 0.0042775
25.7 0.013657
25.89 0.00547522
26.08 0.0195926
26.27 0.0158628
26.46 0.0561905
26.65 0.137342
26.84 0.185701
27.03 0.0649928
27.22 0.0286764
27.41 0.0565174
27.6 0.108281
27.79 0.123441
27.98 0.0653988
28.17 0.0598675
28.36 0.112628
28.55 0.095153
28.74 -0.00131533
28.93 0.0237454
29.12 0.0276355
29.31 0.00339752
29.5 0.0276833
29.69 0.0620008
29.88 0.0539163
30.07 0.156723
30.26 0.178413
30.45 0.231971
30.64 0.67977
30.83 8.28823
31.02 13.0466
31.21 0.669804
31.4 0.248875
31.59 0.18125
31.78 0.481635
31.97 0.140305
32.16 0.0276015
32.35 0.0056402
32.54 0.0165423
32.73 0.0108312
32.92 0.0230127
33.11 0.0827395
33.3 0.352898
33.49 0.298388
33.68 0.574147
33.87 0.503628
34.06 0.297107
34.25 0.0664684
34.44 0.0526516
34.63 0.134396
34.82 0.0202924
35.01 0.00681574
35.2 -0.0042311
35.39 0.033628
35.58 6.29037e-05
35.77 0.0124197
35.96 -0.00621258
36.15 -0.0103121
36.34 -0.00661752
36.53 0.01735
36.72 0.0817735
36.91 0.21856
37.1 1.1837
37.29 6.40488
37.48 3.06618
37.67 0.513578
37.86 0.690628
38.05 0.53959
38.24 0.351058
38.43 0.228675
38.62 0.161669
38.81 0.249657
39 0.527519
39.19 0.355312
39.38 0.146134
39.57 0.0642055
39.76 0.054824
39.95 0.0178229
40.14 -0.00766952
40.33 -0.00435807
40.52 -0.000194162
40.71 0.0284825
40.9 0.0774798
41.09 0.0944299
41.28 0.0409591
41.47 0.0236891
41.66 -0.000528427
41.85 0.0185345
42.04 -0.00677446
42.23 0.0215373
42.42 -0.000217473
42.61 0.0285251
42.8 0.0111268
42.99 0.0708045
43.18 0.175145
43.37 0.213265
43.56 0.212117
43.75 0.711087
43.94 0.666367
44.13 0.0640066
44.32 0.0264064
44.51 0.0363125
44.7 0.0574498
44.89 0.0945211
45.08 0.163486
45.27 0.10247
45.46 0.0149985
45.65 -0.00121004
45.84 0.0144542
46.03 0.00934184
46.22 0.0159583
46.41 0.00855619
46.6 -0.0101514
46.79 0.0153202
46.98 0.0288409
47.17 0.0393019
47.36 0.0481643
47.55 0.126275
47.74 0.188515
47.93 0.1036
48.12 0.044999
48.31 0.0405955
48.5 0.0463467
48.69 0.0141221
48.88 0.00931096
49.07 -0.00174825
49.26 0.0365597
49.45 0.0674784
49.64 0.115054
49.83 0.199341
50.02 0.211438
50.21 0.119934
50.4 0.0843178
50.59 0.0316232
50.78 0.0320289
50.97 0.0579559
51.16 0.0644012
51.35 0.0468869
51.54 0.00245516
51.73 -0.0113518
51.92 -0.00488542
52.11 0.0205745
52.3 0.0805447
52.49 0.14232
52.68 0.125204
52.87 0.0511306
53.06 -0.00414125
53.25 0.00381167
53.44 -0.00382727
53.63 0.0264312
53.82 0.0111112
54.01 0.0152373
54.2 0.000916573
54.39 0.0459904
54.58 0.119289
54.77 0.146739
54.96 0.0581691
55.15 0.0308849
55.34 -0.0010709
55.53 -0.0139035
55.72 0.00234648
55.91 0.0120046
56.1 0.0150814
56.29 0.0134469
56.48 0.0425303
56.67 0.0211325
56.86 0.00804276
57.05 0.0119543
57.24 0.0771987
57.43 0.121081
57.62 0.0605508
57.81 0.00800447
58 0.0195645
58.19 0.00791027
58.38 0.03951
58.57 0.046296
58.76 0.0286796
58.95 0.0357894
59.14 0.0138381
59.33 -0.00607342
59.52 0.00796082
59.71 0.0119711
59.9 0.0364357
60.09 0.0283069
60.28 0.028855
60.47 0.000305241
60.66 -0.00830855
60.85 -0.000457453
61.04 0.00242549
61.23 0.0171466
61.42 0.0171121
61.61 0.00478652
61.8 0.0061254
61.99 0.0037578
62.18 0.0308224
62.37 0.0498784
62.56 0.0708321
62.75 0.082958
62.94 0.054033
63.13 0.0229989
63.32 0.0196141
63.51 -0.00577557
63.7 -0.0139848
63.89 0.00922387
64.08 0.051999
64.27 0.108449
64.46 0.14666
64.65 0.160526
64.84 0.120152
65.03 0.0363557
65.22 -0.00278094
65.41 -0.00447474
65.6 0.0131835
65.79 0.0104372
65.98 0.0234421
66.17 0.0237072
66.36 0.0439352
66.55 0.0607934
66.74 0.0320962
66.93 0.0234394
67.12 0.00743357
67.31 0.000528615
67.5 -0.00555051
67.69 0.0135935
67.88 -0.000677589
68.07 -0.00919204
68.26 0.0125567
68.45 0.00185938
68.64 -0.00166809
68.83 -4.85642e-05
69.02 0.00420454
69.21 0.00831246
69.4 0.0604585
69.59 0.067652
69.78 0.0916982
69.97 0.0628313
70.16 0.0117819
70.27 -0.0185105