File: data/xrd/xy/2019-07-01T19_39_31.550325+00_00_LBL_C4.xy
'Id: "" Comment: "Integrate frame 20190716_acnh3_nprop_4flph_03_002.gfrmwith cursor Wedge Cursor #1" Operator: "UC Berkeley" Anode: "Co" Scantype: "TwoTheta" TimePerStep: "450"
20.115 -0.0388468
20.3 -0.00765761
20.485 -0.0193678
20.67 0.0516278
20.855 -0.0107491
21.04 -0.00634514
21.225 0.0725718
21.41 0.0381678
21.595 0.0785047
21.78 0.0502217
21.965 0.0217478
22.15 0.12477
22.335 0.070649
22.52 0.130697
22.705 0.34072
22.89 0.403418
23.075 0.124908
23.26 0.116163
23.445 0.0733035
23.63 0.121939
23.815 0.0462241
24 0.112268
24.185 0.008132
24.37 0.0858856
24.555 -0.00479516
24.74 0.0602486
24.925 0.0133784
25.11 0.138296
25.295 0.104062
25.48 0.119972
25.665 0.0319075
25.85 0.0187024
26.035 0.0740239
26.22 0.0840155
26.405 0.0816492
26.59 -0.0200016
26.775 0.139022
26.96 0.108082
27.145 -0.0145482
27.33 -0.017709
27.515 0.0108782
27.7 0.0736227
27.885 0.0970519
28.07 0.00454562
28.255 0.014167
28.44 0.0786621
28.625 0.0295081
28.81 0.0978926
28.995 0.120062
29.18 0.109934
29.365 0.684157
29.55 0.335506
29.735 0.10401
29.92 0.0398594
30.105 0.274723
30.29 0.1217
30.475 -0.00847241
30.66 0.0430338
30.845 0.00185503
31.03 0.0103673
31.215 0.0244629
31.4 -0.00693784
31.585 0.0294881
31.77 0.0255795
31.955 0.0421865
32.14 0.0845211
32.325 0.00213022
32.51 0.0992948
32.695 0.0545332
32.88 0.0496672
33.065 0.0155007
33.25 0.0500408
33.435 -0.00499377
33.62 0.0700095
33.805 0.0413154
33.99 0.00331187
34.175 0.0342693
34.36 0.0913863
34.545 0.37826
34.73 0.223959
34.915 0.411339
35.1 1.60978
35.285 1.07125
35.47 0.249179
35.655 0.0349885
35.84 0.00784778
36.025 0.00773171
36.21 0.00119742
36.395 -0.0220784
36.58 0.0133412
36.765 0.0396438
36.95 0.110742
37.135 0.330222
37.32 0.156396
37.505 0.0700976
37.69 0.0198878
37.875 -0.00570729
38.06 0.0428519
38.245 -0.00930279
38.43 0.00113544
38.615 -0.0265448
38.8 0.0361546
38.985 0.0238864
39.17 0.00194482
39.355 -0.0090194
39.54 0.00509831
39.725 -3.64396e-05
39.91 0.21564
40.095 0.352844
40.28 0.044418
40.465 0.0579366
40.65 -0.0227887
40.835 -0.0176199
41.02 -0.0149513
41.205 0.0180967
41.39 0.0780372
41.575 0.0404015
41.76 0.0416545
41.945 0.00084957
42.13 0.012427
42.315 0.0171712
42.5 0.0139331
42.685 0.0351412
42.87 -0.0245646
43.055 0.0383429
43.24 0.00940064
43.425 -0.0122409
43.61 0.0202467
43.795 0.0526653
43.98 0.100468
44.165 0.0477468
44.35 0.00911379
44.535 0.0247932
44.72 0.00833619
44.905 0.0499855
45.09 0.0495157
45.275 0.0344773
45.46 0.0302617
45.645 0.0559213
45.83 0.0641371
46.015 0.0671473
46.2 0.158921
46.385 0.51603
46.57 1.47753
46.755 1.09158
46.94 0.322519
47.125 0.055352
47.31 0.0100431
47.495 0.0375526
47.68 0.118236
47.865 0.0226241
48.05 0.04177
48.235 0.14386
48.42 0.227585
48.605 0.467735
48.79 0.376161
48.975 0.109924
49.16 0.0617446
49.345 0.0072018
49.53 0.0384853
49.715 0.00425934
49.9 0.0189513
50.085 0.00144236
50.27 0.00250478
50.455 0.0473101
50.64 0.036186
50.825 0.0121077
51.01 -0.013417
51.195 0.0299393
51.38 -0.00753076
51.565 -0.00695631
51.75 -0.00738726
51.935 0.0157898
52.12 -0.00689465
52.305 0.0168741
52.49 0.0235894
52.675 0.0380871
52.86 0.0243004
53.045 -0.0175903
53.23 0.00804684
53.415 0.014026
53.6 0.011619
53.785 -0.00871492
53.97 0.00970835
54.155 0.0100029
54.34 -0.00724162
54.525 0.0442408
54.71 0.00164416
54.895 -0.000147
55.08 0.0547498
55.265 0.072684
55.45 0.0292335
55.635 0.0634823
55.82 0.0985197
56.005 0.283131
56.19 0.331139
56.375 0.148821
56.56 0.0518405
56.745 0.0123798
56.93 -0.00203501
57.115 -0.00220227
57.3 0.0138591
57.485 0.0109841
57.67 -0.0224671
57.855 0.0398007
58.04 0.0228258
58.225 0.0075322
58.41 -0.023984
58.595 0.0610422
58.78 -0.0240411
58.965 0.0218659
59.15 0.0147251
59.335 0.02265
59.52 0.0582447
59.705 0.136962
59.89 0.174674
60.075 0.0558848
60.26 0.0215519
60.445 0.00933553
60.63 0.0156112
60.815 0.0439307
61 0.0874495
61.185 0.0638098
61.37 0.0308264
61.555 0.0140013
61.74 0.0307417
61.925 0.01561
62.11 0.00419458
62.295 0.00755461
62.48 -0.0118022
62.665 0.0272278
62.85 0.0201654
63.035 0.029958
63.22 0.0350818
63.405 -0.000352538
63.59 0.0414633
63.775 -0.0218104
63.96 0.0510556
64.145 0.0349908
64.33 0.0196899
64.515 0.043896
64.7 0.0575756
64.885 0.0397425
65.07 0.0250068
65.255 0.0466941
65.44 0.0163792
65.625 0.0115097
65.81 -0.00648
65.995 0.0518445
66.18 0.0471005
66.365 0.0181643
66.55 0.0250036
66.735 0.0125018
66.92 -0.0159272
67.105 0.0191876
67.29 -0.0112771
67.475 0.0529946
67.66 0.0155628
67.845 0.0193952
68.03 -0.0206369
68.215 0.0117268
68.4 0.0218084
68.585 0.033594
68.77 0.0273977
68.955 0.0498527
69.14 0.040525
69.325 0.0872036
69.51 0.0664493
69.695 0.051896
69.88 0.0226828
70.065 0.0150235
70.25 0.0341796
70.435 0.0482685
70.62 0.0140012
70.805 0.0557164
70.99 0.0294084
71.175 0.0120334
71.36 0.0285027
71.545 0.0270871
71.73 0.00190727
71.915 0.00343519
72.1 0.0193239
72.285 0.00650796
72.47 0.0349065
72.655 0.0580271
72.84 0.0339609
73.025 0.050384
73.21 0.0260242
73.395 0.0528494
73.58 -0.00225747
73.765 0.0195232
73.95 -0.00105263
74.135 -0.00900928
74.32 0.0154502
74.505 0.0467671
74.69 0.0478811
74.755 -0.0202746