File: data/xrd/xy/2019-09-24T15_41_07.555823+00_00_LBL_B5.xy
'Id: "" Comment: "Integrate frame butane14dia_01_001.gfrmwith cursor Wedge Cursor #1" Operator: "UC Berkeley" Anode: "Co" Scantype: "TwoTheta" TimePerStep: "600"
13.655 -0.0252218
13.85 0.0085475
14.045 -0.00866366
14.24 0.018308
14.435 0.0976903
14.63 0.0343322
14.825 0.0666091
15.02 0.0265659
15.215 0.0190353
15.41 0.0236768
15.605 0.0206353
15.8 0.0703868
15.995 0.0669712
16.19 0.0261563
16.385 0.0362078
16.58 0.0108102
16.775 0.0434034
16.97 0.023564
17.165 0.0339695
17.36 0.0630355
17.555 0.0398696
17.75 0.0437385
17.945 0.0359878
18.14 0.0068155
18.335 0.0553681
18.53 0.0299409
18.725 0.0447637
18.92 0.0222687
19.115 0.0515812
19.31 0.0364311
19.505 0.0293756
19.7 0.0277689
19.895 0.0293132
20.09 0.0443515
20.285 0.023911
20.48 0.0436052
20.675 0.0752134
20.87 0.0504901
21.065 0.201432
21.26 0.0379249
21.455 0.043692
21.65 0.0440882
21.845 0.00277626
22.04 0.0211725
22.235 0.0480214
22.43 0.0267794
22.625 -0.00892856
22.82 0.0168598
23.015 -0.00261619
23.21 0.00720944
23.405 0.0270572
23.6 0.00558952
23.795 -0.000204449
23.99 0.0460116
24.185 0.432665
24.38 -0.0106512
24.575 0.00578279
24.77 0.0428016
24.965 0.592472
25.16 0.0959425
25.355 0.0242785
25.55 0.0236965
25.745 0.000768465
25.94 0.0852137
26.135 0.667712
26.33 0.507199
26.525 1.29555
26.72 0.0453869
26.915 0.0192395
27.11 0.0119902
27.305 0.0171174
27.5 0.0169248
27.695 0.0253528
27.89 0.0129368
28.085 0.0357472
28.28 0.0339203
28.475 0.768624
28.67 0.360156
28.865 0.0618251
29.06 0.131507
29.255 0.0689589
29.45 0.0265289
29.645 0.00209891
29.84 0.0395092
30.035 0.048087
30.23 0.0318489
30.425 0.0819011
30.62 0.639344
30.815 0.132365
31.01 0.00169312
31.205 0.0150996
31.4 -0.00977235
31.595 0.0348899
31.79 0.0529672
31.985 0.0241143
32.18 0.00107845
32.375 0.230701
32.57 1.075
32.765 0.0857445
32.96 0.0189926
33.155 0.0195968
33.35 0.0791968
33.545 8.19763e-06
33.74 0.0217419
33.935 -0.00242303
34.13 0.0237418
34.325 0.0135313
34.52 0.131716
34.715 0.528434
34.91 0.438538
35.105 0.0228038
35.3 -0.00723692
35.495 0.0198718
35.69 0.049602
35.885 0.00685091
36.08 0.00542244
36.275 0.019002
36.47 0.0701307
36.665 0.285902
36.86 1.81927
37.055 0.218337
37.25 0.00644388
37.445 0.0309726
37.64 0.0158457
37.835 0.00418858
38.03 -0.00267413
38.225 0.0106419
38.42 0.023176
38.615 -0.0109141
38.81 -0.0104213
39.005 -0.0148926
39.2 0.00365795
39.395 0.0114351
39.59 0.371553
39.785 0.333421
39.98 0.00992279
40.175 0.014409
40.37 0.0828869
40.565 0.190845
40.76 0.0102884
40.955 0.00854625
41.15 0.0115509
41.345 0.0285824
41.54 0.289871
41.735 0.32449
41.93 0.0419713
42.125 0.0722222
42.32 0.75816
42.515 0.289326
42.71 0.0204248
42.905 0.036988
43.1 0.0223705
43.295 0.0165736
43.49 -0.00708615
43.685 0.0115302
43.88 0.0111309
44.075 0.02214
44.27 0.0235193
44.465 0.101098
44.66 0.186299
44.855 0.306373
45.05 0.518737
45.245 0.0750855
45.44 0.184226
45.635 0.137626
45.83 0.198699
46.025 0.322625
46.22 0.179933
46.415 0.0207626
46.61 -0.000252811
46.805 -0.0177105
47 0.0157746
47.195 -0.0110208
47.39 -0.000418021
47.585 0.0533623
47.78 0.119461
47.975 0.0608924
48.17 0.00607998
48.365 -0.00387724
48.56 0.0258117
48.755 0.0752214
48.95 0.0540397
49.145 0.0554192
49.34 0.265517
49.535 0.353625
49.73 0.11603
49.925 0.0354805
50.12 0.0347723
50.315 0.205693
50.51 0.29039
50.705 0.1514
50.9 0.0364509
51.095 0.0150416
51.29 0.0795748
51.485 0.00590926
51.68 0.00870815
51.875 0.00686189
52.07 -0.0141157
52.265 -0.00835854
52.46 -0.00321949
52.655 0.00300211
52.85 0.0454082
53.045 0.038732
53.24 0.0909015
53.435 0.311291
53.63 0.0594905
53.825 0.0622941
54.02 0.104876
54.215 0.489561
54.41 0.541846
54.605 0.0495583
54.8 -0.00388292
54.995 0.0508767
55.19 0.0533049
55.385 0.0359764
55.58 0.0368449
55.775 0.0344097
55.97 0.0269642
56.165 0.069021
56.36 0.834267
56.555 0.284468
56.75 0.104432
56.945 0.0594832
57.14 0.0226457
57.335 0.0212165
57.53 0.000988276
57.725 0.0176487
57.92 0.0403592
58.115 0.185031
58.31 0.450758
58.505 0.13336
58.7 0.0223124
58.895 0.0183059
59.09 0.0466342
59.285 0.0486714
59.48 0.064118
59.675 0.0123931
59.87 0.0205293
60.065 0.0206307
60.26 0.0140482
60.455 0.0262802
60.65 0.0494988
60.845 0.102802
61.04 0.138845
61.235 0.00731432
61.43 0.0017766
61.625 0.0152467
61.82 0.0349579
62.015 0.0626271
62.21 0.0786822
62.405 0.0270921
62.6 0.00455917
62.795 0.0148802
62.99 0.0028485
63.185 0.00709769
63.38 -0.00403467
63.575 0.0137358
63.77 0.00651696
63.965 0.00964723
64.16 0.0171991
64.355 0.0122582
64.55 0.0670576
64.745 0.0278503
64.94 -0.00184505
65.135 -0.000242721
65.33 -0.00117065
65.525 0.0129521
65.72 0.0518368
65.915 0.0785997
66.11 0.0542783
66.305 0.0361991
66.5 0.0786275
66.695 0.130697
66.89 0.120686
67.085 0.0570397
67.28 0.0183664
67.475 0.0297848
67.67 0.0471246
67.865 0.0823449
68.06 0.147466
68.255 0.20988
68.45 0.185309
68.645 0.115778
68.84 0.0238107
69.035 0.0117982
69.23 0.0124022
69.425 0.026242
69.62 0.0133501
69.815 0.0065455
70.01 0.038414
70.205 0.102948
70.4 0.125853
70.595 0.0689476
70.79 0.0850122
70.985 0.207708
71.18 0.211791
71.375 0.0399454
71.57 -0.00520675
71.765 0.00536959
71.96 -0.0144411
72.04 -0.0160724