File: data/xrd/xy/2019-06-18T20_49_29.598214+00_00_LBL_F1.xy
'Id: "" Comment: "Integrate frame neopen_trifluo_03_001.gfrmwith cursor Wedge Cursor #3" Operator: "UC Berkeley" Anode: "Co" Scantype: "TwoTheta" TimePerStep: "700"
14.215 -0.0242766
14.4 -0.00702415
14.585 0.0524821
14.77 0.1288
14.955 0.0541219
15.14 0.0131915
15.325 0.0103162
15.51 0.0328218
15.695 0.0553195
15.88 0.00726304
16.065 0.0151983
16.25 0.00534678
16.435 0.00364319
16.62 0.013117
16.805 0.0554553
16.99 0.0509315
17.175 0.0196458
17.36 0.0252749
17.545 0.00971491
17.73 0.0172877
17.915 -0.012383
18.1 0.012878
18.285 0.00291905
18.47 0.0279227
18.655 -0.00961555
18.84 0.0255373
19.025 0.0104388
19.21 0.0226019
19.395 -0.00155449
19.58 0.0569574
19.765 0.014659
19.95 0.0209065
20.135 0.08361
20.32 0.00834595
20.505 0.0689293
20.69 0.0673622
20.875 0.0664531
21.06 0.0241741
21.245 0.0305175
21.43 0.0249174
21.615 0.0161448
21.8 0.0398025
21.985 0.025997
22.17 0.0257588
22.355 0.0174803
22.54 0.0539112
22.725 0.00943637
22.91 0.0188335
23.095 0.0387833
23.28 -0.00135625
23.465 0.00496389
23.65 0.00570117
23.835 0.03717
24.02 -0.000710792
24.205 0.0135196
24.39 0.0239737
24.575 0.0177314
24.76 0.0580792
24.945 -0.00184545
25.13 -0.0156018
25.315 0.0431904
25.5 0.0358065
25.685 0.0229993
25.87 0.044756
26.055 0.0199592
26.24 0.0113059
26.425 0.0351053
26.61 0.0359693
26.795 0.0203304
26.98 -0.00201235
27.165 0.0531009
27.35 0.00298659
27.535 0.0431466
27.72 0.0238083
27.905 0.0274428
28.09 0.00316357
28.275 -0.0128357
28.46 0.0177631
28.645 -0.0285612
28.83 0.019441
29.015 0.0426619
29.2 0.0330408
29.385 0.0544208
29.57 0.0183437
29.755 0.0574559
29.94 0.0540012
30.125 0.337605
30.31 0.169352
30.495 0.0256637
30.68 0.0320186
30.865 0.0119286
31.05 0.0109814
31.235 0.00279263
31.42 -0.0102506
31.605 0.0268557
31.79 0.0100568
31.975 0.00613086
32.16 0.0179666
32.345 -0.00291821
32.53 0.0362946
32.715 0.00589308
32.9 0.0563452
33.085 0.0453773
33.27 0.0454047
33.455 0.0319772
33.64 0.0116453
33.825 -0.0111314
34.01 0.024348
34.195 0.0246215
34.38 -0.00084296
34.565 0.0126365
34.75 -0.0133067
34.935 -0.0120847
35.12 -0.00973003
35.305 -0.0156074
35.49 -0.00419608
35.675 -0.00693864
35.86 0.00782776
36.045 0.0212499
36.23 -0.00542151
36.415 -0.0019517
36.6 -0.0233363
36.785 -0.00765096
36.97 0.00963898
37.155 0.00485615
37.34 -0.0216101
37.525 -0.0174322
37.71 -0.0238224
37.895 -0.0175148
38.08 -0.014797
38.265 -0.00806297
38.45 -0.0132004
38.635 -0.00321754
38.82 -0.0173515
39.005 -0.0202595
39.19 -0.0149807
39.375 -0.0160653
39.56 -0.0164661
39.745 -0.0193884
39.93 0.0950007
40.115 0.402026
40.3 0.0818181
40.485 0.0189044
40.67 0.00767642
40.855 0.00293403
41.04 -0.00735283
41.225 -0.0037607
41.41 0.00696864
41.595 -0.00486265
41.78 -0.00283737
41.965 0.0118589
42.15 0.00693231
42.335 0.0266818
42.52 -0.00826517
42.705 0.00186987
42.89 0.0311196
43.075 0.00360488
43.26 -0.0138515
43.445 -0.00219989
43.63 -0.0104428
43.815 -0.016133
44 0.00750958
44.185 0.00659034
44.37 0.013193
44.555 -0.0137242
44.74 0.0205837
44.925 0.0437137
45.11 0.329984
45.295 0.176249
45.48 0.0327034
45.665 0.0175431
45.85 0.0116148
46.035 0.134107
46.22 0.57708
46.405 0.248777
46.59 0.020936
46.775 0.00582819
46.96 0.00900094
47.145 0.0110247
47.33 0.00168805
47.515 -0.00599396
47.7 0.00625618
47.885 0.0109368
48.07 -0.00686263
48.255 -0.00646661
48.44 -0.00972939
48.625 0.0468143
48.81 0.0806713
48.995 0.00438925
49.18 -0.00944849
49.365 0.00154588
49.55 0.00294696
49.735 -0.00952283
49.92 -0.0113152
50.105 0.000701627
50.29 -8.1472e-05
50.475 -0.00319302
50.66 0.00337657
50.845 -0.00846342
51.03 0.00789878
51.215 0.0217344
51.4 -0.0155939
51.585 -0.00217468
51.77 0.00435557
51.955 -0.0209545
52.14 -0.00992634
52.325 -0.000796834
52.51 -0.0221867
52.695 0.0109542
52.88 0.00693946
53.065 0.000545675
53.25 0.000687695
53.435 -0.0060884
53.62 0.017449
53.805 -0.00618223
53.99 0.00508663
54.175 0.00475563
54.36 0.00224431
54.545 -0.00139997
54.73 -0.00819611
54.915 -0.00941029
55.1 -0.0183305
55.285 -0.00378789
55.47 -0.00725044
55.655 -0.00223966
55.84 0.00320326
56.025 0.0108188
56.21 0.0285189
56.395 0.00621604
56.58 0.0192839
56.765 0.00893212
56.95 0.00548922
57.135 0.00402347
57.32 -0.0126926
57.505 0.00720436
57.69 0.00579739
57.875 -0.0160076
58.06 0.0014342
58.245 0.00767831
58.43 0.00731555
58.615 -0.00725964
58.8 0.00972455
58.985 0.00726845
59.17 0.0068762
59.355 0.00790266
59.54 -0.0165705
59.725 0.0149848
59.91 0.00679511
60.095 0.00715053
60.28 -0.0174863
60.465 0.01495
60.65 -0.0103523
60.835 -0.01209
61.02 -0.00631674
61.205 -0.00320034
61.39 0.0683742
61.575 0.18302
61.76 0.0925465
61.945 0.00537556
62.13 -0.00865304
62.315 -0.01198
62.5 0.00648316
62.685 0.0211252
62.87 0.0186068
63.055 -0.00615503
63.24 -0.0038071
63.425 0.000294796
63.61 0.00545556
63.795 4.84461e-05
63.98 -0.0156474
64.165 -0.000101948
64.35 -0.0102807
64.535 -0.00553238
64.72 -0.00264455
64.905 -0.000200375
65.09 -0.00502847
65.275 -0.0069832
65.46 -0.00318443
65.645 0.0148445
65.83 0.0176645
66.015 -0.00648664
66.2 -0.00196351
66.385 0.053032
66.57 0.106554
66.755 0.0746511
66.94 0.0138766
67.125 0.00209863
67.31 -0.0117813
67.495 0.000605611
67.68 5.18861e-05
67.865 -0.00531605
68.05 -0.009871
68.235 0.0021404
68.42 -0.0120116
68.525 -0.0176731