File: data/xrd/xy/2019-08-08T16_56_58.410591+00_00_LBL_A4.xy
'Id: "" Comment: "Integrate frame 4fluorobenzyl_02_001.gfrmwith cursor Wedge Cursor #2" Operator: "UC Berkeley" Anode: "Co" Scantype: "TwoTheta" TimePerStep: "500"
13.245 -0.036915
13.45 1.68313
13.655 1.09993
13.86 0.0120301
14.065 0.0383734
14.27 0.0180517
14.475 0.0671142
14.68 0.080473
14.885 0.0603084
15.09 -0.0144512
15.295 0.0876334
15.5 0.0548578
15.705 0.0575856
15.91 0.0601117
16.115 0.0254182
16.32 0.053943
16.525 0.0288534
16.73 -0.0209484
16.935 0.0914123
17.14 0.130834
17.345 0.0724474
17.55 0.0394545
17.755 0.0760263
17.96 0.055307
18.165 0.0204525
18.37 0.0774054
18.575 0.0857926
18.78 0.0591608
18.985 0.0892627
19.19 0.0308231
19.395 0.0546654
19.6 0.0243629
19.805 0.02425
20.01 0.0308939
20.215 0.0992565
20.42 0.0517632
20.625 0.0460598
20.83 0.00782704
21.035 0.0419485
21.24 0.0606092
21.445 0.0882943
21.65 0.0563055
21.855 0.0219196
22.06 -0.00423323
22.265 0.079976
22.47 0.0457899
22.675 0.0285413
22.88 0.0280534
23.085 0.0501603
23.29 0.0193468
23.495 0.384482
23.7 0.141056
23.905 0.0103684
24.11 0.00447016
24.315 0.0508921
24.52 0.00469307
24.725 0.0717026
24.93 0.0594291
25.135 0.191048
25.34 0.122262
25.545 0.113607
25.75 0.077604
25.955 0.0426496
26.16 0.0505137
26.365 0.000890774
26.57 0.0158494
26.775 0.0771952
26.98 0.0662002
27.185 0.0537973
27.39 -0.000680694
27.595 0.0305346
27.8 0.0174724
28.005 0.0236215
28.21 0.0991192
28.415 0.0322343
28.62 0.16374
28.825 0.269759
29.03 0.0314425
29.235 0.0238948
29.44 0.054175
29.645 0.072539
29.85 0.355111
30.055 2.76118
30.26 1.18567
30.465 0.0683384
30.67 -0.0188292
30.875 0.0466764
31.08 0.0477755
31.285 -0.000634892
31.49 0.0132614
31.695 0.01986
31.9 0.00414418
32.105 0.014246
32.31 0.0375024
32.515 0.037209
32.72 0.0366721
32.925 0.0160867
33.13 0.0248057
33.335 0.00560557
33.54 0.00960904
33.745 -0.0187496
33.95 0.0137215
34.155 0.0112363
34.36 0.0352548
34.565 0.239116
34.77 1.12462
34.975 0.303657
35.18 0.00453279
35.385 0.0189565
35.59 -0.00127313
35.795 -0.00797188
36 0.100158
36.205 0.892745
36.41 1.42967
36.615 0.111739
36.82 0.00343007
37.025 0.0352315
37.23 0.189693
37.435 0.96149
37.64 0.598448
37.845 0.0242491
38.05 0.0181894
38.255 0.00336813
38.46 0.111062
38.665 0.172305
38.87 0.0315563
39.075 0.0296391
39.28 0.00606599
39.485 0.000163226
39.69 -0.00891332
39.895 0.00434313
40.1 -0.0201449
40.305 -0.00253541
40.51 0.0182239
40.715 0.0583929
40.92 0.0294182
41.125 0.0176255
41.33 0.13086
41.535 0.137535
41.74 0.00745172
41.945 0.00466975
42.15 0.0308524
42.355 0.0105669
42.56 0.0269968
42.765 0.0084619
42.97 0.00194174
43.175 0.00515404
43.38 0.0215049
43.585 -0.00290896
43.79 0.00326875
43.995 0.0263143
44.2 -0.0126613
44.405 0.0234857
44.61 0.131753
44.815 0.253477
45.02 0.0718565
45.225 0.021905
45.43 0.00188465
45.635 -0.0196851
45.84 0.0202525
46.045 0.00712149
46.25 0.0312703
46.455 0.00400871
46.66 0.00515589
46.865 -0.000639117
47.07 0.00112769
47.275 0.0274617
47.48 0.131606
47.685 0.242609
47.89 0.289687
48.095 0.871726
48.3 1.11886
48.505 0.181524
48.71 0.0514188
48.915 0.140996
49.12 0.282561
49.325 0.121464
49.53 0.00366357
49.735 0.0143798
49.94 0.115561
50.145 0.410121
50.35 0.92362
50.555 0.243302
50.76 0.0240162
50.965 0.0333965
51.17 0.000366579
51.375 -0.00427545
51.58 0.0517192
51.785 0.164998
51.99 0.294547
52.195 0.178362
52.4 0.0107644
52.605 -0.0128784
52.81 -0.014511
53.015 0.0108191
53.22 -0.0187643
53.425 0.0428964
53.63 0.101585
53.835 0.19899
54.04 0.0779
54.245 0.00210886
54.45 0.0018166
54.655 0.00487443
54.86 0.0242997
55.065 0.039339
55.27 0.00783971
55.475 0.0220552
55.68 -0.00789361
55.885 0.00513712
56.09 0.0303556
56.295 -0.000882209
56.5 0.00826211
56.705 -0.00800565
56.91 0.0553805
57.115 0.0550282
57.32 0.0562502
57.525 0.0749698
57.73 0.172003
57.935 0.365513
58.14 0.218046
58.345 0.0353875
58.55 0.0155491
58.755 -0.0109865
58.96 0.00309916
59.165 -0.00820314
59.37 0.00462076
59.575 0.00268066
59.78 0.0194366
59.985 0.0276887
60.19 0.0233513
60.395 0.0240223
60.6 0.0242816
60.805 0.0172861
61.01 -0.0107609
61.215 0.0282416
61.42 0.0646857
61.625 0.0898612
61.83 0.153336
62.035 0.125582
62.24 0.0875272
62.445 0.143831
62.65 0.174295
62.855 0.133269
63.06 0.0350224
63.265 0.0241135
63.47 0.00390626
63.675 0.00263319
63.88 0.010543
64.085 -0.00417584
64.29 0.017614
64.495 0.0481182
64.7 0.0917273
64.905 0.0923761
65.11 0.10887
65.315 0.0478202
65.52 0.068879
65.725 0.0295533
65.93 0.00794437
66.135 0.0144767
66.34 0.00638627
66.545 0.00972984
66.75 0.0138568
66.955 -0.00147101
67.16 0.0269797
67.365 0.00765222
67.57 0.00474337
67.775 0.0464206
67.98 0.048633
68.185 0.0334929
68.39 0.0220846
68.595 0.0158124
68.8 0.000685402
69.005 -0.0104388
69.21 0.0166654
69.415 0.0112523
69.62 0.0259857
69.825 0.0344887
70.03 0.0463757
70.235 0.0485555
70.44 0.0185187
70.645 0.0194645
70.85 0.0502811
71.055 0.164369
71.26 0.289647
71.465 0.191675
71.67 0.0733541
71.875 0.00152892
72.08 0.0186333
72.285 -0.00045
72.49 0.027641
72.695 0.0101189
72.9 0.0180408
73.105 0.0634652
73.31 0.0709723
73.515 0.0777252
73.72 0.0446194
73.925 0.0630527
74.13 0.00883225
74.335 -0.0157747
74.54 0.00837863
74.73 -0.0164704