File: data/xrd/xy/2019-06-27T12_52_20.503028+00_00_LBL_A8.xy
'Id: "" Comment: "Integrate frame 4_methoxyph_I_Fa_Br_02_002.gfrmwith cursor Wedge Cursor #1" Operator: "UC Berkeley" Anode: "Co" Scantype: "TwoTheta" TimePerStep: "400"
14.095 -0.0311239
14.295 0.00957241
14.495 0.0402269
14.695 0.122038
14.895 0.0615142
15.095 -0.00964759
15.295 0.0447459
15.495 -0.00378644
15.695 0.0584891
15.895 0.0583192
16.095 0.0485732
16.295 -0.0016961
16.495 0.0430925
16.695 0.0408951
16.895 0.0779442
17.095 0.0495176
17.295 0.0746794
17.495 -0.00803757
17.695 0.0455644
17.895 0.0716052
18.095 0.0468513
18.295 0.0246634
18.495 0.0299765
18.695 0.0934256
18.895 0.095808
19.095 0.019336
19.295 -0.0313388
19.495 0.0232309
19.695 0.0337663
19.895 0.12228
20.095 0.308055
20.295 0.395949
20.495 0.100289
20.695 0.0287503
20.895 0.110959
21.095 0.0846983
21.295 0.237795
21.495 0.0131077
21.695 -0.00326757
21.895 -0.0131437
22.095 0.0204927
22.295 -0.00699503
22.495 0.0732006
22.695 0.108851
22.895 0.0775725
23.095 0.0578357
23.295 0.16204
23.495 0.0673016
23.695 0.0709278
23.895 0.0593802
24.095 0.0460376
24.295 0.156722
24.495 0.130306
24.695 0.0160781
24.895 0.00559963
25.095 0.154312
25.295 1.70848
25.495 0.771079
25.695 0.243508
25.895 0.100827
26.095 0.253854
26.295 0.107715
26.495 0.0436965
26.695 -0.000775202
26.895 0.0151506
27.095 0.00491771
27.295 0.110552
27.495 0.0512746
27.695 0.206145
27.895 0.362724
28.095 4.14768
28.295 1.3213
28.495 0.254099
28.695 0.173956
28.895 0.163033
29.095 0.0641749
29.295 0.0621352
29.495 0.227997
29.695 0.088011
29.895 0.0675887
30.095 0.0692015
30.295 0.0958536
30.495 1.08603
30.695 0.347553
30.895 0.0445836
31.095 -0.00173721
31.295 0.019066
31.495 0.0416093
31.695 0.0211265
31.895 0.0246045
32.095 0.0118836
32.295 0.0026214
32.495 0.0365079
32.695 0.107299
32.895 0.532793
33.095 2.93196
33.295 0.637569
33.495 0.668505
33.695 0.587569
33.895 0.0344025
34.095 0.0403459
34.295 0.168843
34.495 0.0712875
34.695 -0.0268658
34.895 -0.00815022
35.095 -0.0159764
35.295 0.00262305
35.495 -0.00925789
35.695 0.0882733
35.895 0.0797304
36.095 0.0517514
36.295 0.0521434
36.495 0.00867281
36.695 0.0159166
36.895 0.0264066
37.095 0.0154183
37.295 -0.00485464
37.495 0.00268995
37.695 0.027665
37.895 0.191258
38.095 0.716227
38.295 0.134215
38.495 0.0746878
38.695 0.0587266
38.895 0.0632826
39.095 0.0241822
39.295 0.0552963
39.495 0.00318256
39.695 -0.00537738
39.895 0.0114864
40.095 0.0991578
40.295 -0.00687402
40.495 0.00360608
40.695 0.0553202
40.895 0.0118052
41.095 0.0265505
41.295 0.0915381
41.495 0.238213
41.695 0.0535799
41.895 -0.00223691
42.095 0.0412426
42.295 -0.0116607
42.495 0.0438573
42.695 0.0228598
42.895 0.0509174
43.095 0.00981796
43.295 0.0315054
43.495 -0.0138383
43.695 0.0322836
43.895 0.0805433
44.095 -0.015936
44.295 0.0161242
44.495 0.0333704
44.695 0.221843
44.895 0.105939
45.095 0.122273
45.295 0.0618853
45.495 0.0101674
45.695 0.104505
45.895 0.197044
46.095 0.158071
46.295 0.216134
46.495 0.261929
46.695 0.130747
46.895 0.0452523
47.095 0.0220297
47.295 0.012813
47.495 0.0036342
47.695 0.0120327
47.895 -0.0190769
48.095 -0.00315225
48.295 0.10895
48.495 0.102872
48.695 0.132927
48.895 0.116158
49.095 0.0955626
49.295 0.157494
49.495 0.0704483
49.695 0.0288359
49.895 0.0126694
50.095 -0.0147625
50.295 0.0168586
50.495 0.0935282
50.695 0.077971
50.895 0.0196504
51.095 0.0152768
51.295 0.0147406
51.495 -0.0281742
51.695 0.0158476
51.895 -0.0052171
52.095 0.0194433
52.295 0.111441
52.495 0.0525321
52.695 0.0212504
52.895 -0.00218623
53.095 -0.011203
53.295 0.0228598
53.495 0.0443774
53.695 0.0221404
53.895 -0.0172968
54.095 0.00390176
54.295 0.0185324
54.495 0.0554464
54.695 0.0450994
54.895 0.0168671
55.095 0.027855
55.295 0.0114473
55.495 0.0299777
55.695 0.0292592
55.895 0.00474565
56.095 0.0303583
56.295 0.0215594
56.495 0.0572452
56.695 0.0241958
56.895 0.0590804
57.095 0.0941073
57.295 0.0764486
57.495 0.0614682
57.695 0.0847189
57.895 0.0927803
58.095 0.0924162
58.295 0.0899474
58.495 0.0200995
58.695 0.0459992
58.895 0.0426935
59.095 0.0168869
59.295 0.00881699
59.495 -0.0259618
59.695 0.0289737
59.895 0.0471707
60.095 0.0565342
60.295 0.0488208
60.495 0.0302902
60.695 0.00385778
60.895 0.0175429
61.095 -0.00451918
61.295 0.0132184
61.495 0.0150659
61.695 0.0299302
61.895 0.0250275
62.095 0.000148435
62.295 0.00363808
62.495 0.0119712
62.695 0.0207523
62.895 -0.0142574
63.095 0.0306265
63.295 0.000636425
63.495 0.088735
63.695 0.0691974
63.895 0.105887
64.095 0.0200017
64.295 0.0314546
64.495 0.00411934
64.695 0.00513101
64.895 0.0622075
65.095 0.0805715
65.295 0.0453515
65.495 0.0480678
65.695 0.0251467
65.895 0.00931692
66.095 0.0075601
66.295 0.00533363
66.495 0.00462559
66.695 0.0352452
66.895 0.0309025
67.095 0.0344275
67.295 0.00276047
67.495 0.0190795
67.695 0.0230235
67.895 0.0287146
68.095 -0.0169808
68.295 0.027506
68.495 0.00406352
68.695 0.0149664
68.895 0.0486763
69.095 0.0719716
69.295 0.0592265
69.495 0.0478169
69.695 0.018014
69.895 0.0109829
70.095 0.0106698
70.295 0.000502958
70.495 0.0489258
70.695 0.0551196
70.895 0.0564328
71.095 -0.00129324
71.295 0.00685878
71.495 0.0117577
71.695 0.0525406
71.895 0.124297
72.095 0.115726
72.295 0.0589486
72.495 0.0475006
72.695 -0.0112552
72.895 0.0213185
73.095 0.0166864
73.295 -0.0200906
73.495 -0.00532725
73.695 -0.0211009
73.71 -0.023433