File: data/xrd/xy/2019-05-13T18_52_03.413380+00_00_LBL.xy
'Id: "" Comment: "Integrate frame ProdiAPbI30_01_001.gfrmwith cursor Wedge Cursor #1" Operator: "UC Berkeley" Anode: "Co" Scantype: "TwoTheta" TimePerStep: "900"
14.275 -0.0211044
14.45 -0.00517839
14.625 0.0469526
14.8 -0.00309632
14.975 0.0419355
15.15 0.0262152
15.325 0.0356598
15.5 0.0310885
15.675 0.00762265
15.85 -0.000195123
16.025 0.0385449
16.2 0.0163312
16.375 0.0137883
16.55 0.0284475
16.725 0.0247239
16.9 0.0162835
17.075 0.0131333
17.25 0.0211865
17.425 0.00329064
17.6 0.0260043
17.775 0.0528925
17.95 0.0302825
18.125 0.00877431
18.3 0.026595
18.475 0.0693814
18.65 0.00168324
18.825 0.00562293
19 0.0284166
19.175 0.030429
19.35 0.0371421
19.525 0.0285093
19.7 0.0251101
19.875 0.0121974
20.05 0.0264471
20.225 0.0221602
20.4 0.0347782
20.575 0.0146959
20.75 0.0111445
20.925 0.0235927
21.1 0.0294976
21.275 -0.00153704
21.45 0.0253867
21.625 0.0291903
21.8 0.00362199
21.975 0.0282842
22.15 0.0292856
22.325 -0.00142955
22.5 0.0327271
22.675 0.00118357
22.85 0.0181904
23.025 -0.00610831
23.2 0.000333472
23.375 0.129263
23.55 0.180912
23.725 0.0115468
23.9 -0.00476164
24.075 0.0128878
24.25 0.0177631
24.425 0.0266869
24.6 0.0204479
24.775 0.00804355
24.95 -0.000623034
25.125 0.0145874
25.3 0.052249
25.475 0.0234464
25.65 0.00991248
25.825 0.029165
26 0.0162645
26.175 -0.00181858
26.35 0.009367
26.525 0.0197168
26.7 0.0157931
26.875 0.00940767
27.05 0.0178764
27.225 0.0116734
27.4 0.0160664
27.575 0.0245325
27.75 -0.000800932
27.925 0.0051761
28.1 0.023912
28.275 -0.00663239
28.45 0.00696612
28.625 0.0795891
28.8 0.201274
28.975 0.0346766
29.15 0.0388144
29.325 0.00491138
29.5 0.0133661
29.675 0.0627966
29.85 0.398756
30.025 1.87616
30.2 0.453249
30.375 0.0582027
30.55 0.0388635
30.725 0.0097274
30.9 0.00424785
31.075 0.0311908
31.25 0.0113419
31.425 0.00714834
31.6 0.0044512
31.775 0.0136578
31.95 0.0115153
32.125 0.0063077
32.3 -0.00815822
32.475 0.00389307
32.65 0.00365147
32.825 -0.0134339
33 -0.00586529
33.175 0.00237795
33.35 -0.000418672
33.525 -0.00835627
33.7 -0.000399658
33.875 0.00169791
34.05 -0.00105846
34.225 0.0123676
34.4 0.0490738
34.575 0.293099
34.75 1.16909
34.925 0.30197
35.1 0.0316358
35.275 0.00936344
35.45 0.0116719
35.625 0.0238744
35.8 0.0427019
35.975 0.17974
36.15 1.22945
36.325 0.541896
36.5 0.0699015
36.675 0.034594
36.85 0.0131057
37.025 0.046069
37.2 0.226357
37.375 1.28521
37.55 0.630788
37.725 0.0826538
37.9 0.0301686
38.075 0.0125859
38.25 0.0566162
38.425 0.24111
38.6 0.10791
38.775 0.0152251
38.95 0.00198163
39.125 0.00153294
39.3 -0.00213465
39.475 -0.0127196
39.65 -0.00445889
39.825 -0.00940527
40 -0.0108868
40.175 0.00620562
40.35 -0.00612664
40.525 0.00564154
40.7 0.0869749
40.875 0.0486777
41.05 0.0510554
41.225 0.161535
41.4 0.0733202
41.575 0.00537127
41.75 0.0142657
41.925 0.00725204
42.1 -0.000719861
42.275 0.00328065
42.45 -0.000540263
42.625 -0.00709939
42.8 -0.00595028
42.975 0.00127414
43.15 -0.0103101
43.325 0.0100875
43.5 -0.000273935
43.675 -0.00356991
43.85 0.0102002
44.025 0.0160605
44.2 -0.00619054
44.375 0.0574847
44.55 0.182704
44.725 0.261421
44.9 0.0665897
45.075 0.0222208
45.25 0.0148672
45.425 -0.0135021
45.6 0.00448126
45.775 0.00135752
45.95 -0.00219083
46.125 -0.0147631
46.3 -0.0105655
46.475 0.000838905
46.65 0.000765802
46.825 0.00984445
47 0.0180787
47.175 0.0402164
47.35 0.107087
47.525 0.426725
47.7 0.406123
47.875 1.10346
48.05 1.95253
48.225 0.415296
48.4 0.0958335
48.575 0.0736662
48.75 0.119755
48.925 0.321184
49.1 0.241819
49.275 0.0732776
49.45 0.0382951
49.625 0.0591502
49.8 0.109487
49.975 0.413375
50.15 0.63315
50.325 0.177708
50.5 0.0449406
50.675 0.011326
50.85 0.00307363
51.025 0.00305974
51.2 0.00294956
51.375 0.00577816
51.55 0.0304398
51.725 0.125343
51.9 0.213981
52.075 0.0749926
52.25 0.0128674
52.425 -0.0014742
52.6 -0.00266683
52.775 -0.00897985
52.95 -0.00282941
53.125 -0.00335775
53.3 0.0056759
53.475 0.0257603
53.65 0.107881
53.825 0.213477
54 0.0996236
54.175 0.0128934
54.35 0.0031957
54.525 -0.0106612
54.7 -0.000484464
54.875 0.00923553
55.05 0.0303605
55.225 0.00397938
55.4 -0.00320972
55.575 0.00430123
55.75 -0.00253397
55.925 -0.00348185
56.1 -0.0014904
56.275 0.00435327
56.45 0.0048988
56.625 0.0296216
56.8 0.0572057
56.975 0.0980512
57.15 0.0554946
57.325 0.062956
57.5 0.171761
57.675 0.297054
57.85 0.179241
58.025 0.0527521
58.2 0.00794845
58.375 0.00630296
58.55 0.00350614
58.725 0.0170982
58.9 0.000606885
59.075 0.0071302
59.25 0.000369396
59.425 0.0113259
59.6 -0.00257655
59.775 0.00874529
59.95 0.000901543
60.125 -0.00516623
60.3 0.00129663
60.475 0.00969651
60.65 0.0129742
60.825 0.00732773
61 0.0162527
61.175 0.0336701
61.35 0.142269
61.525 0.35187
61.7 0.161804
61.875 0.080109
62.05 0.0751681
62.225 0.111837
62.4 0.181915
62.575 0.130453
62.75 0.058844
62.925 0.0246568
63.1 0.0254694
63.275 0.0193422
63.45 0.0078699
63.625 0.00502747
63.8 0.0129891
63.975 -0.000843182
64.15 -0.0054558
64.325 0.0164127
64.5 0.0446437
64.675 0.0912935
64.85 0.158287
65.025 0.151266
65.2 0.0714142
65.375 0.0220713
65.55 0.00725496
65.725 0.0100262
65.9 0.0044353
66.075 -0.00195725
66.25 -0.0049042
66.425 -0.00172321
66.525 -0.012252