File: data/xrd/xy/2019-05-23TO2_12_25.720560+00_00_LBL_B1.xy
'Id: "" Comment: "Integrate frame 06062019_neo_Pentyl_02_002.gfrmwith cursor Wedge Cursor #2" Operator: "UC Berkeley" Anode: "Co" Scantype: "TwoTheta" TimePerStep: "600"
14.335 -0.0251195
14.51 -0.0245812
14.685 0.0286018
14.86 0.037601
15.035 0.0318961
15.21 0.0240586
15.385 -0.0105993
15.56 -0.00559384
15.735 0.0217328
15.91 0.0505648
16.085 0.0415203
16.26 0.0530971
16.435 0.0435804
16.61 0.0633794
16.785 0.0678262
16.96 0.0690664
17.135 0.0685117
17.31 0.0844767
17.485 0.0819327
17.66 0.0801982
17.835 0.0641565
18.01 0.0363845
18.185 0.0538594
18.36 0.0623789
18.535 0.0521465
18.71 0.0121928
18.885 0.063948
19.06 0.0471454
19.235 0.0394844
19.41 0.0770694
19.585 0.0359358
19.76 -0.00797785
19.935 0.0398657
20.11 0.0173891
20.285 0.065005
20.46 0.0597528
20.635 0.0293961
20.81 0.023187
20.985 0.0174235
21.16 0.0083784
21.335 0.0306969
21.51 0.0637759
21.685 0.0513058
21.86 0.00726195
22.035 0.0503653
22.21 0.0442635
22.385 0.0414857
22.56 0.0280906
22.735 0.000228641
22.91 -0.00752687
23.085 0.0261315
23.26 0.0290686
23.435 -0.0113907
23.61 0.0257909
23.785 0.0456851
23.96 0.0402086
24.135 0.0436262
24.31 0.0376033
24.485 0.0292248
24.66 0.0539574
24.835 0.0214217
25.01 -0.00422596
25.185 -0.0176379
25.36 0.036928
25.535 0.027554
25.71 0.000875461
25.885 0.0216423
26.06 -0.00212248
26.235 0.000493553
26.41 0.00474957
26.585 0.0143579
26.76 0.0477558
26.935 0.00889516
27.11 0.0531696
27.285 0.0521751
27.46 0.0159524
27.635 0.00794235
27.81 0.0156932
27.985 0.0475332
28.16 0.0215409
28.335 0.00925413
28.51 0.00222864
28.685 0.0148453
28.86 0.0147788
29.035 0.057903
29.21 0.00973409
29.385 0.0542392
29.56 0.0808761
29.735 0.0796709
29.91 0.0157452
30.085 0.0994529
30.26 0.10382
30.435 0.0180445
30.61 -0.00173278
30.785 0.0265577
30.96 0.0186467
31.135 -0.00550618
31.31 0.00537595
31.485 0.0113457
31.66 0.0157687
31.835 0.0270421
32.01 0.0166118
32.185 0.0210913
32.36 0.00142509
32.535 0.024097
32.71 0.0124084
32.885 0.048496
33.06 0.0617346
33.235 0.0515774
33.41 0.0487269
33.585 0.0260571
33.76 0.0228473
33.935 0.0258917
34.11 0.036456
34.285 0.0399592
34.46 0.130055
34.635 0.103789
34.81 0.0374621
34.985 0.0549531
35.16 0.0452902
35.335 0.0225991
35.51 0.0247478
35.685 0.0509597
35.86 0.0380682
36.035 0.0565097
36.21 0.0505423
36.385 0.0412716
36.56 0.0160724
36.735 0.0120056
36.91 -0.0156683
37.085 0.00545724
37.26 0.00822189
37.435 0.00877344
37.61 0.00420731
37.785 0.00827779
37.96 0.00373946
38.135 -0.00814315
38.31 0.00531437
38.485 0.00186575
38.66 0.00363827
38.835 -0.00953189
39.01 0.00200237
39.185 -0.0101532
39.36 0.00173317
39.535 -0.00540813
39.71 0.0102863
39.885 0.0321004
40.06 0.0379271
40.235 0.00199164
40.41 -0.00524573
40.585 0.010116
40.76 -0.00537919
40.935 -0.0178384
41.11 -0.000595748
41.285 0.00717953
41.46 -0.00727119
41.635 -0.00905825
41.81 0.00220611
41.985 -0.00900128
42.16 0.0124837
42.335 -0.000306061
42.51 0.0115123
42.685 0.00836263
42.86 -0.000900269
43.035 0.00283663
43.21 -6.76751e-05
43.385 -0.0104545
43.56 -0.00465384
43.735 0.0059534
43.91 0.00496972
44.085 0.031531
44.26 0.0345882
44.435 0.0297848
44.61 0.0383481
44.785 0.0554978
44.96 0.22611
45.135 0.837144
45.31 0.362033
45.485 0.0325469
45.66 0.00539859
45.835 0.0291372
46.01 0.099673
46.185 0.401796
46.36 0.331877
46.535 0.0601501
46.71 0.0103251
46.885 -0.00160225
47.06 -0.0112434
47.235 -0.00327457
47.41 0.00405661
47.585 -0.000468137
47.76 0.00608157
47.935 0.0049873
48.11 0.00161597
48.285 0.0023261
48.46 0.0152704
48.635 0.0583034
48.81 0.105239
48.985 0.0592475
49.16 -0.00111301
49.335 -0.00753768
49.51 0.00903299
49.685 -0.00670424
49.86 -0.00218027
50.035 -0.0115855
50.21 -0.0042301
50.385 -0.00355232
50.56 0.000548851
50.735 0.00175895
50.91 0.0116055
51.085 0.00587713
51.26 -0.00909941
51.435 -0.00258214
51.61 -0.00870916
51.785 0.00654747
51.96 -0.0129689
52.135 -0.00167432
52.31 -0.00324927
52.485 -0.000760086
52.66 -0.00108927
52.835 0.0122093
53.01 0.0212536
53.185 0.0167491
53.36 0.0113987
53.535 0.000195239
53.71 0.00904182
53.885 0.00273914
54.06 -0.00641856
54.235 0.00173202
54.41 0.0103551
54.585 -0.00589082
54.76 0.00112862
54.935 0.0151861
55.11 -0.00179046
55.285 0.000699994
55.46 -0.0178637
55.635 0.0115648
55.81 0.0123082
55.985 0.0309407
56.16 0.0165109
56.335 0.0196977
56.51 -0.00168728
56.685 0.00491877
56.86 0.00286389
57.035 -0.010131
57.21 0.00968149
57.385 -0.00352257
57.56 -0.0114407
57.735 0.0013218
57.91 0.000951182
58.085 0.00711069
58.26 0.011115
58.435 -0.00264868
58.61 0.00575453
58.785 0.00866619
58.96 0.00557774
59.135 0.0127599
59.31 0.00563436
59.485 0.00287973
59.66 0.0229193
59.835 0.00863589
60.01 0.0059971
60.185 0.0162611
60.36 0.0120858
60.535 0.0132594
60.71 -0.00263893
60.885 0.00407646
61.06 0.00747736
61.235 0.0537139
61.41 0.391453
61.585 0.61117
61.76 0.401669
61.935 0.107482
62.11 0.00741808
62.285 0.00998886
62.46 0.00382786
62.635 0.00885069
62.81 0.00156291
62.985 0.0056109
63.16 0.00855232
63.335 -0.000550806
63.51 0.00960405
63.685 0.0115166
63.86 -0.00776518
64.035 0.0053164
64.21 0.0176256
64.385 -0.00486052
64.56 0.00176739
64.735 -0.00897763
64.91 0.00342108
65.085 -0.00094993
65.26 -0.00399001
65.435 0.00200089
65.61 -0.00513804
65.785 -0.00185758
65.96 -0.0143133
66.135 0.00762168
66.31 -0.0102235
66.485 0.00294217
66.66 0.00968433
66.745 -0.0220921