File: data/xrd/xy/2019-07-01T19_39_31.550325+00_00_LBL_A2.xy
'Id: "" Comment: "Integrate frame 20190716_acnh3_nprop_4flph_02_003.gfrmwith cursor Wedge Cursor #1" Operator: "UC Berkeley" Anode: "Co" Scantype: "TwoTheta" TimePerStep: "450.002"
17.41 -0.0311717
17.6 0.0324359
17.79 0.0348635
17.98 0.100776
18.17 0.0691688
18.36 0.0781786
18.55 0.0797038
18.74 0.110151
18.93 0.273233
19.12 0.176227
19.31 -0.0117077
19.5 0.0615836
19.69 -0.00513778
19.88 0.0488567
20.07 0.164816
20.26 0.0605366
20.45 -0.00158176
20.64 0.0690183
20.83 0.0774047
21.02 0.0123598
21.21 0.0562921
21.4 0.0655914
21.59 0.0361232
21.78 0.0183352
21.97 0.109559
22.16 -0.00778654
22.35 0.042638
22.54 0.0616222
22.73 0.019659
22.92 0.0562738
23.11 0.0324543
23.3 0.031886
23.49 0.0648239
23.68 0.0380154
23.87 -0.00808739
24.06 0.0476357
24.25 0.0632696
24.44 0.0349897
24.63 -0.031045
24.82 0.0866783
25.01 0.00227191
25.2 0.0465608
25.39 0.0309645
25.58 0.781644
25.77 0.498585
25.96 -0.0310998
26.15 0.0141372
26.34 0.0189086
26.53 -0.0281873
26.72 -0.00764284
26.91 -0.00787779
27.1 0.0656739
27.29 0.17611
27.48 0.0881369
27.67 -0.00709019
27.86 0.0591296
28.05 0.0371236
28.24 0.158216
28.43 0.73954
28.62 0.721923
28.81 0.242718
29 0.335881
29.19 0.0424199
29.38 0.579907
29.57 0.54684
29.76 0.0356369
29.95 0.112502
30.14 0.171985
30.33 0.0549084
30.52 0.0665813
30.71 0.00445378
30.9 0.0637394
31.09 0.286561
31.28 0.307508
31.47 0.101255
31.66 0.0379055
31.85 0.0193604
32.04 0.0740948
32.23 0.0373196
32.42 0.0820046
32.61 0.0278636
32.8 0.00930575
32.99 0.0630209
33.18 0.205041
33.37 0.882519
33.56 0.246759
33.75 0.0368077
33.94 0.0403903
34.13 -0.0261776
34.32 0.0361461
34.51 0.285384
34.7 0.529003
34.89 0.0956453
35.08 0.0774804
35.27 0.309959
35.46 0.0467109
35.65 0.0217285
35.84 0.0558382
36.03 0.0151936
36.22 -0.0275565
36.41 -0.0216556
36.6 0.0119992
36.79 0.0134279
36.98 0.118555
37.17 0.76207
37.36 0.388522
37.55 0.103326
37.74 0.0344945
37.93 0.0128943
38.12 0.180229
38.31 0.159561
38.5 0.111083
38.69 0.0496187
38.88 -0.0094816
39.07 -0.0272623
39.26 0.00549745
39.45 0.00194327
39.64 0.0277858
39.83 0.043701
40.02 0.149421
40.21 0.215481
40.4 0.1358
40.59 0.0329697
40.78 0.0210616
40.97 0.0318996
41.16 0.102627
41.35 0.24895
41.54 0.262808
41.73 0.0476509
41.92 -0.00327587
42.11 -0.0215587
42.3 0.0350248
42.49 0.00973837
42.68 0.0308004
42.87 0.0463916
43.06 0.0357201
43.25 0.0195558
43.44 0.00647461
43.63 0.0155439
43.82 0.0663956
44.01 0.0789683
44.2 0.125075
44.39 0.0394741
44.58 0.0384579
44.77 0.0323706
44.96 0.00295461
45.15 0.0112341
45.34 0.000486262
45.53 0.024705
45.72 0.162251
45.91 0.338974
46.1 0.460394
46.29 0.202196
46.48 0.183279
46.67 0.579002
46.86 0.473595
47.05 0.177181
47.24 0.0754874
47.43 0.0199431
47.62 0.135634
47.81 0.112768
48 -0.0154668
48.19 0.0541727
48.38 0.11827
48.57 0.283258
48.76 0.417756
48.95 0.148587
49.14 0.0187628
49.33 -0.00070993
49.52 0.0243318
49.71 0.068778
49.9 0.0593373
50.09 0.0289609
50.28 0.00697304
50.47 -0.0200687
50.66 0.000317867
50.85 -0.0111167
51.04 -0.0135964
51.23 -0.00648378
51.42 -0.023382
51.61 0.022548
51.8 0.0161159
51.99 0.00133439
52.18 0.0139401
52.37 -0.00644304
52.56 0.101027
52.75 0.310296
52.94 0.330998
53.13 0.0262589
53.32 -0.0191831
53.51 -0.00505691
53.7 -0.0158347
53.89 0.0107306
54.08 0.0273271
54.27 0.0667479
54.46 0.289532
54.65 0.635814
54.84 0.446635
55.03 0.072036
55.22 0.00670433
55.41 0.00311067
55.6 0.0245606
55.79 0.0174817
55.98 0.0434262
56.17 0.0587485
56.36 0.0701143
56.55 0.0895012
56.74 0.127308
56.93 0.0588709
57.12 -0.00153642
57.31 -0.0220562
57.5 -0.00216424
57.69 0.0182949
57.88 0.0241175
58.07 0.0145182
58.26 0.0433305
58.45 0.0288619
58.64 0.00199992
58.83 0.0109508
59.02 0.0561362
59.21 0.109368
59.4 0.239505
59.59 0.0801525
59.78 0.0212707
59.97 0.0257832
60.16 -0.00154445
60.35 0.0119336
60.54 0.0435414
60.73 0.0367666
60.92 0.026227
61.11 0.0508426
61.3 0.0444672
61.49 0.0237
61.68 0.0110271
61.87 -0.00399851
62.06 0.00327583
62.25 0.00518749
62.44 -0.00140788
62.63 0.00245791
62.82 0.0262383
63.01 0.0162257
63.2 -0.0172748
63.39 0.0315591
63.58 0.00420936
63.77 0.00967195
63.96 0.0142611
64.15 0.00280855
64.34 0.0143047
64.53 0.0021297
64.72 0.0420198
64.91 0.0534229
65.1 0.0842853
65.29 0.0730226
65.48 0.000881115
65.67 -0.00534478
65.86 -4.86218e-05
66.05 0.00467133
66.24 0.0195606
66.43 -0.00442606
66.62 0.0323586
66.81 -0.0161674
67 0.0229588
67.19 0.0106569
67.38 -0.00402765
67.57 0.0198141
67.76 0.00906871
67.95 -0.0104301
68.14 0.00198303
68.33 0.012019
68.52 -0.0121107
68.71 0.00718331
68.9 -0.00146223
69.09 0.0502416
69.28 0.0745705
69.47 0.0610054
69.66 0.0135839
69.85 0.011508
70.04 0.000546714
70.23 0.0349208
70.42 0.0131535
70.61 -0.00502524
70.8 0.0151021
70.99 0.0193202
71.18 0.00153029
71.37 0.000944694
71.56 0.0114704
71.75 0.00410112
71.94 0.00193611
72.13 0.00606979
72.32 -0.0130946
72.51 0.0133924
72.7 0.0115567
72.89 0.0432691
73.08 0.0647236
73.27 0.0751065
73.46 0.0250909
73.65 -0.00106256
73.84 0.0085682
74.03 0.0135913
74.22 -0.0187826
74.345 -0.0224063