File: data/xrd/xy/2019-05-29T17_22_53.471261+00_00_LBL_A1.xy
'Id: "" Comment: "Integrate frame 060320190_01_001.gfrmwith cursor Wedge Cursor #1" Operator: "UC Berkeley" Anode: "Co" Scantype: "TwoTheta" TimePerStep: "400"
14.475 -0.0314987
14.645 0.304822
14.815 0.299122
14.985 0.0377638
15.155 0.114817
15.325 0.0714099
15.495 0.050125
15.665 0.0462302
15.835 0.093032
16.005 0.0441965
16.175 0.0749117
16.345 0.0585433
16.515 0.0205296
16.685 0.0812148
16.855 0.0325136
17.025 0.0356273
17.195 0.072848
17.365 0.0284744
17.535 0.0759603
17.705 0.0243389
17.875 0.0159955
18.045 0.0820913
18.215 0.0385582
18.385 0.0515211
18.555 0.0310751
18.725 0.0541595
18.895 0.0765232
19.065 0.0471151
19.235 0.0307837
19.405 0.0441331
19.575 0.00738547
19.745 0.00662274
19.915 0.00274588
20.085 0.0308562
20.255 0.0175645
20.425 0.0544408
20.595 0.0524722
20.765 0.0210529
20.935 0.00656619
21.105 0.0345784
21.275 0.0360174
21.445 0.0674002
21.615 0.0318151
21.785 0.0598742
21.955 0.0103651
22.125 0.0201276
22.295 0.00436061
22.465 0.0149291
22.635 0.0324207
22.805 0.025651
22.975 0.0320878
23.145 -0.00739438
23.315 0.187388
23.485 0.123617
23.655 0.041191
23.825 0.0368889
23.995 0.0662526
24.165 0.0254595
24.335 0.0276528
24.505 0.0264948
24.675 0.0719423
24.845 -0.00398135
25.015 0.0692649
25.185 0.0237044
25.355 0.0439275
25.525 0.0171625
25.695 0.0393056
25.865 0.0414654
26.035 0.0253314
26.205 0.0266081
26.375 0.0120816
26.545 -0.0012802
26.715 0.0256905
26.885 0.0381596
27.055 0.0389723
27.225 0.137573
27.395 0.276709
27.565 0.0878573
27.735 0.0563403
27.905 0.0613215
28.075 0.0790279
28.245 0.0303044
28.415 0.00049782
28.585 0.0225026
28.755 0.130431
28.925 0.41868
29.095 1.46755
29.265 0.65332
29.435 0.175923
29.605 0.250478
29.775 0.0928588
29.945 0.0833369
30.115 0.416075
30.285 0.27692
30.455 0.0311581
30.625 0.0214025
30.795 0.0200605
30.965 0.0283937
31.135 0.0326105
31.305 0.00155752
31.475 0.0223784
31.645 0.0072827
31.815 0.0869336
31.985 0.315364
32.155 0.0635482
32.325 0.0152236
32.495 0.0221448
32.665 0.0592662
32.835 0.0410421
33.005 0.0882485
33.175 0.0251047
33.345 0.0124515
33.515 0.0106703
33.685 0.00536159
33.855 0.0316118
34.025 0.0593062
34.195 0.027287
34.365 0.0334262
34.535 0.0774706
34.705 0.0907899
34.875 0.295706
35.045 0.0691528
35.215 0.00443714
35.385 0.0147459
35.555 0.000295736
35.725 -0.00239873
35.895 -0.00959562
36.065 0.0192603
36.235 0.0240318
36.405 0.0221398
36.575 -0.000329364
36.745 0.0463552
36.915 0.386147
37.085 0.754022
37.255 0.11656
37.425 0.0109771
37.595 0.0449261
37.765 0.103466
37.935 0.00932467
38.105 0.00787793
38.275 0.00708457
38.445 -0.00514242
38.615 0.00575316
38.785 0.000826834
38.955 -0.00955147
39.125 0.0233951
39.295 0.0837656
39.465 0.0419348
39.635 0.0506731
39.805 0.199026
39.975 0.844792
40.145 0.234616
40.315 0.0197226
40.485 0.0262157
40.655 0.0101725
40.825 0.0320737
40.995 -0.00664429
41.165 -0.00369117
41.335 0.03045
41.505 0.121511
41.675 0.0539176
41.845 0.00213171
42.015 0.00504958
42.185 0.000785414
42.355 0.0580459
42.525 0.0834488
42.695 0.00972458
42.865 0.0107618
43.035 0.0881375
43.205 0.0579165
43.375 -0.0151951
43.545 -0.0137172
43.715 0.0562214
43.885 0.0839541
44.055 0.0510336
44.225 0.0276073
44.395 0.0166365
44.565 -0.0225284
44.735 0.0170403
44.905 0.106171
45.075 0.882451
45.245 0.658993
45.415 0.0629825
45.585 0.0360182
45.755 0.0162828
45.925 0.0326523
46.095 0.122106
46.265 0.11696
46.435 0.087156
46.605 0.271676
46.775 0.27769
46.945 0.0892572
47.115 -0.0104911
47.285 0.00478165
47.455 0.00908647
47.625 0.0436837
47.795 0.0809609
47.965 0.0314624
48.135 0.00202963
48.305 0.0503676
48.475 0.139563
48.645 0.195917
48.815 0.0782421
48.985 0.00822899
49.155 0.00440765
49.325 0.00744615
49.495 -0.0114037
49.665 0.00200598
49.835 0.0305258
50.005 0.120038
50.175 0.231492
50.345 0.117666
50.515 0.0354849
50.685 0.00878354
50.855 0.0107706
51.025 0.000355504
51.195 0.00978493
51.365 -0.000348633
51.535 -0.0125834
51.705 0.00943568
51.875 -5.23251e-05
52.045 -0.00250966
52.215 -0.0199619
52.385 0.0178627
52.555 0.0388337
52.725 0.161224
52.895 0.392437
53.065 0.344989
53.235 0.0871868
53.405 0.0754956
53.575 0.131262
53.745 0.0704049
53.915 0.0261366
54.085 0.0270485
54.255 0.00740287
54.425 0.016502
54.595 0.0080119
54.765 0.000229091
54.935 -0.0138527
55.105 0.00724072
55.275 0.0436517
55.445 0.0324409
55.615 0.0421043
55.785 0.0517793
55.955 0.0377616
56.125 0.0596175
56.295 0.0443121
56.465 0.0262311
56.635 0.0404434
56.805 0.0179684
56.975 0.0169077
57.145 0.00145795
57.315 -0.0112587
57.485 -0.000725901
57.655 0.0205938
57.825 -0.0151394
57.995 0.0557616
58.165 0.0443343
58.335 0.0345718
58.505 0.0346823
58.675 0.0120263
58.845 0.0196164
59.015 0.00862041
59.185 0.0156466
59.355 0.0167311
59.525 0.0699125
59.695 0.176792
59.865 0.147142
60.035 0.0619278
60.205 0.0846244
60.375 0.0848961
60.545 0.0229837
60.715 0.000525198
60.885 0.00305469
61.055 0.00730215
61.225 0.0649326
61.395 0.292433
61.565 0.635
61.735 0.364508
61.905 0.0858612
62.075 0.0165065
62.245 0.0197922
62.415 0.0163661
62.585 0.0568362
62.755 0.0719356
62.925 0.0160915
63.095 -0.012727
63.265 -0.0018437
63.435 0.0157674
63.605 0.0194153
63.775 0.0249735
63.945 0.0204709
64.115 -0.00123406
64.245 -0.0216516