File: data/xrd/xy/2019-06-10T21_14_00.866379+00_00_LBL_B6.xy
'Id: "" Comment: "Integrate frame 06132019_dimethyl_ipropyl_02_002.gfrmwith cursor Wedge Cursor #2" Operator: "UC Berkeley" Anode: "Co" Scantype: "TwoTheta" TimePerStep: "480"
17.29 -0.0299317
17.48 0.0583329
17.67 0.0686209
17.86 0.0470785
18.05 0.069543
18.24 0.0583917
18.43 0.060842
18.62 0.0296537
18.81 0.0299932
19 0.0262644
19.19 0.020088
19.38 0.000188017
19.57 0.0554069
19.76 0.0622811
19.95 0.0351848
20.14 0.0342364
20.33 0.0604119
20.52 0.0662718
20.71 0.104994
20.9 0.0710377
21.09 0.0795677
21.28 0.0614328
21.47 0.0249165
21.66 0.055271
21.85 0.0130574
22.04 0.0555714
22.23 0.0237006
22.42 0.03462
22.61 0.0380236
22.8 0.0233718
22.99 0.0716045
23.18 0.0234107
23.37 0.1777
23.56 0.672205
23.75 0.107197
23.94 0.0321263
24.13 0.0388014
24.32 0.0388352
24.51 0.0339725
24.7 0.050878
24.89 0.0045342
25.08 0.0225183
25.27 0.0916987
25.46 0.0296498
25.65 0.026799
25.84 0.0151726
26.03 0.0262671
26.22 0.0550245
26.41 0.0317912
26.6 0.0382284
26.79 0.0817313
26.98 0.0379478
27.17 0.0272227
27.36 0.0209355
27.55 0.0513013
27.74 0.0789683
27.93 0.0335942
28.12 0.0199377
28.31 0.0224411
28.5 0.0456485
28.69 0.13144
28.88 0.0788917
29.07 0.0554629
29.26 0.0279901
29.45 0.0259557
29.64 0.0456963
29.83 0.159962
30.02 1.42676
30.21 1.5064
30.4 0.0981612
30.59 0.0667107
30.78 0.0625018
30.97 0.0336514
31.16 0.0146479
31.35 0.0161569
31.54 0.0129654
31.73 -0.0260401
31.92 0.0162449
32.11 -0.00143864
32.3 0.0115376
32.49 0.0565941
32.68 0.015381
32.87 0.0244869
33.06 0.0419415
33.25 0.0193743
33.44 -0.0072392
33.63 0.0314282
33.82 0.019717
34.01 0.0229555
34.2 0.0482664
34.39 0.0437178
34.58 0.100912
34.77 0.769551
34.96 0.180326
35.15 0.0592192
35.34 -0.00948435
35.53 0.0308868
35.72 0.0205905
35.91 0.0785434
36.1 0.456853
36.29 3.4159
36.48 1.64504
36.67 0.164721
36.86 0.0554828
37.05 0.0431138
37.24 0.0994994
37.43 0.69442
37.62 0.392574
37.81 0.0488439
38 -0.0157525
38.19 0.0195905
38.38 0.0568367
38.57 0.267597
38.76 0.0676273
38.95 0.00708941
39.14 0.0100306
39.33 -0.000632289
39.52 0.00651754
39.71 -0.0150072
39.9 0.0091906
40.09 0.0479999
40.28 -0.013857
40.47 0.038689
40.66 0.0182667
40.85 0.0272366
41.04 0.0241188
41.23 0.143214
41.42 0.541689
41.61 0.216345
41.8 0.0335832
41.99 0.02828
42.18 -0.00484956
42.37 0.0308068
42.56 -0.00879402
42.75 -0.0144416
42.94 0.0055701
43.13 0.0382591
43.32 0.0166511
43.51 0.0177804
43.7 0.0436893
43.89 0.0140415
44.08 0.0349437
44.27 0.0102826
44.46 0.0278756
44.65 0.135547
44.84 0.163337
45.03 0.0488695
45.22 0.0133392
45.41 0.00819513
45.6 0.0200965
45.79 0.0335285
45.98 -0.00512003
46.17 0.00283809
46.36 0.0071115
46.55 0.0138486
46.74 0.0269922
46.93 0.0484397
47.12 -0.0170374
47.31 0.0150816
47.5 0.126266
47.69 0.240715
47.88 0.334245
48.07 1.5545
48.26 3.03869
48.45 0.974125
48.64 0.151535
48.83 0.0682586
49.02 0.156159
49.21 0.182574
49.4 0.0625601
49.59 0.0224334
49.78 0.0371568
49.97 0.158393
50.16 0.827696
50.35 1.37037
50.54 0.561359
50.73 0.0633496
50.92 0.00158873
51.11 0.0185432
51.3 0.00642304
51.49 0.00661365
51.68 0.00434423
51.87 0.177599
52.06 0.235039
52.25 0.0852056
52.44 0.026934
52.63 0.0057632
52.82 -0.001203
53.01 0.00251853
53.2 0.0101007
53.39 0.0224467
53.58 0.0198624
53.77 0.0741245
53.96 0.0679822
54.15 0.0119982
54.34 0.00303095
54.53 0.00925044
54.72 -0.0102332
54.91 0.0122035
55.1 0.00594644
55.29 0.0171814
55.48 -0.0152923
55.67 -0.011875
55.86 0.00730991
56.05 0.0177621
56.24 0.0203232
56.43 0.00909004
56.62 0.00484903
56.81 0.0244579
57 0.0662464
57.19 0.0725033
57.38 0.0805638
57.57 0.122853
57.76 0.457747
57.95 0.605558
58.14 0.331137
58.33 0.069325
58.52 0.0136584
58.71 0.0171715
58.9 -0.00976892
59.09 0.0288592
59.28 -0.0015429
59.47 -0.0116502
59.66 -0.00958167
59.85 0.00636499
60.04 0.00277645
60.23 0.0200329
60.42 0.00625741
60.61 0.0354
60.8 0.00346212
60.99 0.0305971
61.18 0.0220266
61.37 0.0233397
61.56 0.10969
61.75 0.289436
61.94 0.289071
62.13 0.163009
62.32 0.0753304
62.51 0.169922
62.7 0.218545
62.89 0.0968103
63.08 0.0479277
63.27 0.0145101
63.46 0.0209787
63.65 0.00910217
63.84 0.00236055
64.03 0.0257644
64.22 0.00612475
64.41 0.0120748
64.6 0.0342491
64.79 0.0779487
64.98 0.0834175
65.17 0.0594743
65.36 0.0645125
65.55 0.0203174
65.74 0.00228416
65.93 0.0234788
66.12 0.0108339
66.31 0.0109812
66.5 0.00684877
66.69 -0.00404636
66.88 0.0141033
67.07 0.014787
67.26 0.0102269
67.45 0.00383543
67.64 0.0470814
67.83 0.0918865
68.02 0.096529
68.21 0.0520715
68.4 0.0329554
68.59 0.0299967
68.78 -0.000196807
68.97 0.00425237
69.16 0.0208511
69.35 0.0131303
69.54 -0.00242533
69.73 -0.000992096
69.92 0.0273734
70.11 0.0459326
70.3 0.01814
70.49 0.0137408
70.68 -0.00961197
70.87 0.0566995
71.06 0.208756
71.25 0.282185
71.44 0.240079
71.63 0.146657
71.82 0.0590845
72.01 0.0142585
72.2 0.0425461
72.39 0.021596
72.58 -0.00237225
72.77 -0.0105592
72.96 -0.0128407
73.15 0.0104957
73.34 0.0417947
73.53 0.0218368
73.72 -0.014938
73.755 -0.018662