File: data/xrd/xy/2019-07-12T13_34_37.895617+00_00_LBL_A7.xy
'Id: "" Comment: "Integrate frame 20190719_4fluorophenethyl_01_003.gfrmwith cursor Wedge Cursor #1" Operator: "UC Berkeley" Anode: "Co" Scantype: "TwoTheta" TimePerStep: "600"
15.41 -0.0252244
15.61 0.0126751
15.81 0.0186748
16.01 0.0654659
16.21 0.137182
16.41 0.0923082
16.61 0.0982809
16.81 0.237151
17.01 0.0604375
17.21 0.194075
17.41 0.123568
17.61 0.113151
17.81 0.112638
18.01 -0.0247117
18.21 0.153904
18.41 0.126697
18.61 1.71902
18.81 0.900617
19.01 0.154865
19.21 0.0716924
19.41 0.0309916
19.61 0.057741
19.81 0.0679065
20.01 0.0865114
20.21 0.151976
20.41 0.103472
20.61 0.0764074
20.81 0.0600696
21.01 0.0563637
21.21 0.114069
21.41 0.0379894
21.61 0.0620766
21.81 0.100641
22.01 0.120387
22.21 0.0521537
22.41 0.0123232
22.61 0.0653887
22.81 -0.0185472
23.01 0.0194544
23.21 0.0320687
23.41 0.0810751
23.61 0.17198
23.81 0.138104
24.01 0.0892387
24.21 0.105423
24.41 0.0746899
24.61 0.125378
24.81 1.00562
25.01 16.4175
25.21 0.813742
25.41 0.210207
25.61 0.0690466
25.81 0.0689789
26.01 0.0173591
26.21 0.0382684
26.41 0.091664
26.61 0.255786
26.81 0.0736985
27.01 0.165945
27.21 0.247477
27.41 0.0677425
27.61 -0.000139296
27.81 0.0488001
28.01 0.181802
28.21 0.120538
28.41 0.0278247
28.61 0.123779
28.81 0.0838598
29.01 0.105519
29.21 0.071682
29.41 0.0194784
29.61 0.1493
29.81 0.0798947
30.01 0.155558
30.21 0.391862
30.41 0.121558
30.61 0.201222
30.81 0.115269
31.01 0.356568
31.21 1.67616
31.41 21.2816
31.61 1.79717
31.81 0.691632
32.01 0.120247
32.21 0.0294106
32.41 0.0124047
32.61 -0.0139472
32.81 0.0313053
33.01 0.058991
33.21 0.043668
33.41 0.0412275
33.61 -0.00246148
33.81 0.610774
34.01 0.624117
34.21 0.156843
34.41 0.204372
34.61 0.300593
34.81 0.157628
35.01 0.166441
35.21 0.0998391
35.41 0.0109387
35.61 0.27795
35.81 0.0165395
36.01 0.0125725
36.21 0.0132861
36.41 0.0236145
36.61 -0.00101287
36.81 -0.014224
37.01 -0.00594581
37.21 0.0384321
37.41 0.232461
37.61 0.325166
37.81 3.27134
38.01 1.00674
38.21 0.330555
38.41 0.179152
38.61 0.0558802
38.81 0.00502335
39.01 0.0158809
39.21 -0.000228653
39.41 0.0752904
39.61 -0.00747401
39.81 0.105272
40.01 0.244106
40.21 0.0698384
40.41 0.0274055
40.61 0.00347926
40.81 0.0659685
41.01 0.0556494
41.21 0.00843907
41.41 -0.00526234
41.61 0.0183188
41.81 0.0318566
42.01 0.0115975
42.21 0.0232844
42.41 -0.00869528
42.61 0.018347
42.81 0.0457621
43.01 -0.00105152
43.21 0.00925991
43.41 0.0740791
43.61 0.0782495
43.81 0.0763033
44.01 0.0761707
44.21 0.337086
44.41 0.663743
44.61 0.22088
44.81 0.115057
45.01 0.32298
45.21 0.482678
45.41 0.0931791
45.61 -0.0121164
45.81 0.0350693
46.01 0.306456
46.21 1.11077
46.41 0.404118
46.61 0.0679416
46.81 0.0103461
47.01 0.0262124
47.21 0.0335653
47.41 0.0580151
47.61 0.0111947
47.81 0.0424478
48.01 0.0457663
48.21 0.0166864
48.41 -0.0196911
48.61 0.164025
48.81 0.364066
49.01 0.501845
49.21 1.71158
49.41 0.364059
49.61 0.124951
49.81 0.0248971
50.01 0.0212964
50.21 0.0297061
50.41 0.0378134
50.61 0.0132521
50.81 0.000545888
51.01 0.0106608
51.21 0.0678393
51.41 0.0375375
51.61 0.105721
51.81 0.0408343
52.01 0.0128018
52.21 0.0125388
52.41 0.00947949
52.61 0.0109963
52.81 0.0288216
53.01 0.0470272
53.21 0.0125459
53.41 0.0132321
53.61 0.0413491
53.81 0.0778626
54.01 0.0754052
54.21 0.0456357
54.41 0.062601
54.61 0.103506
54.81 0.0427836
55.01 0.116492
55.21 0.113141
55.41 0.0142857
55.61 0.0271889
55.81 0.0716278
56.01 0.056209
56.21 0.0855841
56.41 0.0805145
56.61 0.0252944
56.81 0.0260969
57.01 0.0297422
57.21 0.0173326
57.41 0.01783
57.61 0.0196348
57.81 0.0360757
58.01 0.039781
58.21 0.0144232
58.41 0.0516828
58.61 0.0586956
58.81 0.0423943
59.01 0.0688957
59.21 0.109585
59.41 0.0471021
59.61 0.0325743
59.81 0.0407544
60.01 0.0532059
60.21 0.0188976
60.41 0.0270389
60.61 0.0316414
60.81 0.0245871
61.01 0.00718554
61.21 0.0819152
61.41 0.171216
61.61 0.238419
61.81 0.163806
62.01 -0.0162884
62.21 0.0607869
62.41 0.0832928
62.61 0.0340483
62.81 0.0379254
63.01 0.0897448
63.21 0.0899194
63.41 0.0923575
63.61 0.177504
63.81 0.0693055
64.01 0.0425367
64.21 0.010821
64.41 0.0115778
64.61 0.0230155
64.81 0.0312332
65.01 0.0118307
65.21 -0.00363579
65.41 0.0308326
65.61 0.0527611
65.81 0.00123959
66.01 0.17725
66.21 0.0937571
66.41 0.144332
66.61 0.261859
66.81 0.133955
67.01 0.0564529
67.21 0.0232946
67.41 0.0640626
67.61 0.0876472
67.81 0.13182
68.01 0.0093398
68.21 0.0160655
68.41 -0.000761663
68.61 -0.00968418
68.81 0.0417682
69.01 0.0227582
69.21 -0.00980443
69.41 -0.0011768
69.61 0.0104156
69.81 0.0136951
70.01 0.0204993
70.21 0.0524865
70.41 0.144103
70.61 0.0983599
70.81 0.0765323
71.01 0.0468264
71.21 0.0294677
71.41 0.0155726
71.61 -0.00925658
71.81 0.0246147
72.01 0.032464
72.21 0.018654
72.41 -0.00713452
72.61 -0.00780804
72.81 0.0365526
73.01 0.0610485
73.21 0.0859516
73.41 0.137223
73.61 0.0700403
73.81 0.0266961
74.01 0.0264506
74.21 0.00767346
74.41 0.00404481
74.52 -0.0174171