File: data/xrd/xy/2019-06-10T22_05_20.195696+00_00_LBL_A5.xy
'Id: "" Comment: "Integrate frame 06132019_dimethyl_ipropyl_05_002.gfrmwith cursor Wedge Cursor #6" Operator: "UC Berkeley" Anode: "Co" Scantype: "TwoTheta" TimePerStep: "480"
20.78 -0.0302513
20.925 -0.0220829
21.07 -0.00361824
21.215 0.00586211
21.36 0.0269707
21.505 0.00511957
21.65 0.0308
21.795 0.0292261
21.94 0.0364324
22.085 0.0204695
22.23 0.0304309
22.375 0.0130023
22.52 0.0130061
22.665 0.0142357
22.81 0.0322571
22.955 0.0121399
23.1 0.00520231
23.245 0.0325215
23.39 0.0300457
23.535 0.0147935
23.68 0.034307
23.825 0.00720063
23.97 0.0291741
24.115 0.0089153
24.26 0.0267407
24.405 0.0346094
24.55 0.0320141
24.695 0.0278114
24.84 0.0190146
24.985 0.0337677
25.13 0.0641415
25.275 0.088104
25.42 0.0963406
25.565 0.0663851
25.71 0.0572026
25.855 0.0953181
26 0.0368335
26.145 0.0594587
26.29 0.0634852
26.435 0.0702352
26.58 0.0216422
26.725 0.0511059
26.87 0.0250818
27.015 0.0446755
27.16 0.0549299
27.305 0.13047
27.45 0.149566
27.595 0.112479
27.74 0.269668
27.885 0.260361
28.03 0.119508
28.175 0.0958787
28.32 0.111173
28.465 0.115112
28.61 0.0816312
28.755 0.12352
28.9 0.243263
29.045 0.251088
29.19 0.221442
29.335 0.222848
29.48 0.128938
29.625 0.0536859
29.77 0.0594895
29.915 0.0417128
30.06 0.0228871
30.205 0.00382899
30.35 0.0772572
30.495 0.0838772
30.64 0.183707
30.785 0.244292
30.93 0.231165
31.075 0.131059
31.22 0.0577359
31.365 0.0222193
31.51 0.0165583
31.655 0.0152991
31.8 0.0173807
31.945 0.0508686
32.09 0.0727249
32.235 0.168416
32.38 0.23708
32.525 0.159604
32.67 0.059292
32.815 0.0233247
32.96 0.0202279
33.105 0.0154262
33.25 0.00071105
33.395 0.00406903
33.54 0.0527121
33.685 0.0828841
33.83 0.0859789
33.975 0.0773392
34.12 0.0917578
34.265 0.108632
34.41 0.0817291
34.555 0.0824137
34.7 0.0946708
34.845 0.0952851
34.99 0.123559
35.135 0.0641248
35.28 0.0675917
35.425 0.102885
35.57 0.159816
35.715 0.109155
35.86 0.0696396
36.005 0.0603219
36.15 0.0535069
36.295 0.0314102
36.44 0.0262358
36.585 0.0378791
36.73 0.0477967
36.875 0.0610097
37.02 0.0667595
37.165 0.0944409
37.31 0.045612
37.455 0.0465143
37.6 0.0188227
37.745 -0.000284081
37.89 -0.00736154
38.035 0.0150248
38.18 0.0046654
38.325 0.00372865
38.47 -0.00396132
38.615 0.0335931
38.76 0.0680221
38.905 0.0920423
39.05 0.116297
39.195 0.029475
39.34 0.0266749
39.485 -0.00100185
39.63 -0.0184666
39.775 -0.0245346
39.92 -0.00393051
40.065 -0.00290218
40.21 0.0111089
40.355 0.00374085
40.5 0.00783553
40.645 -0.0155773
40.79 -0.00574295
40.935 -0.00795851
41.08 0.00678042
41.225 0.0191003
41.37 0.00354762
41.515 0.010172
41.66 0.0223961
41.805 0.00456618
41.95 -0.00306864
42.095 -0.00280506
42.24 -0.0213519
42.385 -0.00274658
42.53 0.0391978
42.675 0.0292634
42.82 0.031066
42.965 0.00731183
43.11 0.0416147
43.255 0.106102
43.4 0.191391
43.545 0.198715
43.69 0.169949
43.835 0.0670104
43.98 0.0570707
44.125 0.0581555
44.27 0.0609359
44.415 0.0604146
44.56 0.0517312
44.705 0.0273657
44.85 -0.00671071
44.995 0.0102695
45.14 0.00789337
45.285 0.0249053
45.43 0.0269751
45.575 0.0414928
45.72 0.0444826
45.865 0.0812551
46.01 0.261317
46.155 0.355389
46.3 0.198869
46.445 0.0897351
46.59 0.0928054
46.735 0.116018
46.88 0.175927
47.025 0.27773
47.17 0.298264
47.315 0.213147
47.46 0.137085
47.605 0.106293
47.75 0.0868196
47.895 0.084674
48.04 0.076813
48.185 0.0538577
48.33 0.0508421
48.475 0.0195089
48.62 0.0251392
48.765 -0.00407394
48.91 -0.00235557
49.055 -0.00305167
49.2 0.0147459
49.345 0.00623804
49.49 -0.00200974
49.635 0.00620918
49.78 -0.0124866
49.925 -0.00930725
50.07 -0.00316955
50.215 -0.00407029
50.36 -0.00364865
50.505 -0.00397795
50.65 0.0186994
50.795 0.0204224
50.94 0.018571
51.085 0.0267246
51.23 0.0244203
51.375 0.0161013
51.52 0.00865488
51.665 -0.00528467
51.81 5.35777e-05
51.955 -0.00678417
52.1 0.000483394
52.245 0.00651764
52.39 -0.0137074
52.535 0.0152849
52.68 0.0260685
52.825 0.0243555
52.97 0.0338374
53.115 0.00411882
53.26 -0.00475783
53.405 -0.0032052
53.55 -0.00500935
53.695 0.00522991
53.84 0.00814888
53.985 0.00293414
54.13 0.0162574
54.275 0.0276119
54.42 0.057122
54.565 0.079238
54.71 0.0801624
54.855 0.0645251
55 0.03883
55.145 0.0358947
55.29 0.0264018
55.435 0.0362894
55.58 0.0469488
55.725 0.0381942
55.87 0.02467
56.015 0.00562592
56.16 -0.00606424
56.305 0.0125171
56.45 0.0126196
56.595 0.0171375
56.74 0.0215931
56.885 0.014881
57.03 0.054878
57.175 0.0429042
57.32 0.0781872
57.465 0.0804849
57.61 0.0615735
57.755 0.0408715
57.9 0.00921475
58.045 0.0182307
58.19 0.0127266
58.335 0.0331213
58.48 0.0363717
58.625 0.0501289
58.77 0.0408124
58.915 0.0285357
59.06 0.0328863
59.205 0.00408015
59.35 0.00230711
59.495 -0.00240967
59.64 -0.00204783
59.785 -0.0023226
59.93 0.002572
60.075 -0.00605627
60.22 0.0141234
60.365 -0.000474246
60.51 0.00851445
60.655 -0.0031853
60.8 0.000260724
60.945 0.027354
61.09 0.00244578
61.235 -0.00195732
61.38 -0.00137631
61.525 0.0107177
61.67 0.0148163
61.815 0.0229096
61.96 0.0227341
62.105 0.00575512
62.25 0.0076747
62.395 0.00532916
62.54 0.00384049
62.685 0.00950911
62.83 0.00302388
62.975 -0.00571277
63.11 -0.0194551