File: data/xrd/xy/2019-09-12T19_30_45.894318+00_00_LBL_B12.xy
'Id: "" Comment: "Integrate frame nhexyl1_00_003.gfrmwith cursor Wedge Cursor #1" Operator: "UC Berkeley" Anode: "Co" Scantype: "TwoTheta" TimePerStep: "600"
13.655 -0.0249823
13.85 0.0278069
14.045 0.0426229
14.24 0.0658225
14.435 0.0108495
14.63 0.000823719
14.825 0.0140786
15.02 0.0357427
15.215 0.0389919
15.41 0.0304394
15.605 0.036478
15.8 0.0430889
15.995 -0.00867997
16.19 -0.00532231
16.385 0.0120025
16.58 -0.00192003
16.775 0.0197829
16.97 0.0296492
17.165 -0.00965467
17.36 -0.00276683
17.555 0.0635075
17.75 0.0803899
17.945 0.0121783
18.14 0.0213317
18.335 0.0225157
18.53 0.0272433
18.725 0.336058
18.92 0.999357
19.115 0.0224152
19.31 0.0380408
19.505 -0.00417867
19.7 0.0476743
19.895 0.0171973
20.09 0.04095
20.285 0.0477236
20.48 -0.00355509
20.675 0.0459004
20.87 -0.0269293
21.065 0.0160539
21.26 0.0242633
21.455 0.0109336
21.65 0.0284061
21.845 0.00534504
22.04 0.0239483
22.235 0.0160463
22.43 0.037182
22.625 0.00830638
22.82 0.0645877
23.015 0.0589712
23.21 0.0411742
23.405 0.0324905
23.6 0.0212202
23.795 0.0327574
23.99 0.0611014
24.185 0.0441673
24.38 0.084329
24.575 0.0815667
24.77 0.188128
24.965 0.459439
25.16 9.35294
25.355 12.0875
25.55 0.446433
25.745 0.172961
25.94 0.0864875
26.135 0.0917991
26.33 0.0842863
26.525 0.116246
26.72 0.0409059
26.915 0.0192091
27.11 0.0542541
27.305 0.0625667
27.5 0.0362909
27.695 0.079599
27.89 0.116865
28.085 0.0248691
28.28 -0.000338769
28.475 0.052413
28.67 0.00689936
28.865 0.045351
29.06 0.0231467
29.255 0.0337465
29.45 0.0252536
29.645 -0.0134725
29.84 0.0350688
30.035 0.016616
30.23 0.000371976
30.425 -0.00489792
30.62 0.0415928
30.815 0.0911942
31.01 0.165658
31.205 0.319638
31.4 0.717224
31.595 8.43067
31.79 30.5224
31.985 1.67346
32.18 0.422931
32.375 0.236452
32.57 0.0813006
32.765 0.0478622
32.96 0.102141
33.155 0.104891
33.35 0.086313
33.545 0.00621805
33.74 0.016545
33.935 0.00631257
34.13 0.00503011
34.325 -0.00743556
34.52 0.00545394
34.715 -0.00634685
34.91 -0.0219116
35.105 0.0203774
35.3 0.00646448
35.495 0.00914429
35.69 0.0100522
35.885 0.0306208
36.08 0.000443522
36.275 0.00250842
36.47 0.00473225
36.665 0.023402
36.86 0.0187157
37.055 0.118595
37.25 0.0322694
37.445 0.0178084
37.64 0.0622593
37.835 0.158773
38.03 0.323436
38.225 3.71358
38.42 4.47534
38.615 0.472669
38.81 0.257766
39.005 0.2746
39.2 0.0230074
39.395 -0.00256723
39.59 0.0131015
39.785 0.0268434
39.98 0.0191068
40.175 0.00493821
40.37 -0.0191503
40.565 -0.00131242
40.76 -0.0241349
40.955 0.0126191
41.15 0.00764199
41.345 0.00795439
41.54 0.00836858
41.735 -0.0161335
41.93 -0.00732599
42.125 0.0128156
42.32 -0.00628891
42.515 -0.002761
42.71 0.0100883
42.905 0.0357141
43.1 -0.014247
43.295 -0.00844829
43.49 0.000605904
43.685 0.0217571
43.88 -0.00191846
44.075 -0.00639918
44.27 0.00267846
44.465 -0.00697834
44.66 0.0209547
44.855 0.16172
45.05 0.910947
45.245 0.238655
45.44 0.016315
45.635 -0.0072103
45.83 -0.0118331
46.025 0.00435022
46.22 -0.0209048
46.415 -0.00192882
46.61 0.00594458
46.805 0.0302764
47 -0.00122763
47.195 -0.0217504
47.39 -0.00287851
47.585 -0.01147
47.78 0.00412614
47.975 0.0095922
48.17 0.00287463
48.365 -0.00102648
48.56 0.000111588
48.755 -0.0117213
48.95 -0.00598499
49.145 -0.00377523
49.34 -0.0149862
49.535 -0.0114681
49.73 -0.0213413
49.925 -0.000253829
50.12 0.00443804
50.315 -0.00140771
50.51 -0.0125609
50.705 -0.0178401
50.9 -0.00419583
51.095 -0.000228657
51.29 -0.00192433
51.485 -0.000140054
51.68 0.015615
51.875 0.0258507
52.07 -0.00376257
52.265 -0.00306056
52.46 0.0242683
52.655 0.0142354
52.85 -0.00234804
53.045 -0.00348419
53.24 0.0235654
53.435 0.0189487
53.63 0.00901213
53.825 0.0110823
54.02 -0.0050409
54.215 0.00852058
54.41 0.000758076
54.605 0.00860404
54.8 0.00157691
54.995 0.00288775
55.19 -0.00399063
55.385 0.00325421
55.58 0.00384312
55.775 -0.0095008
55.97 0.0016531
56.165 -0.0148125
56.36 0.00609146
56.555 0.00367992
56.75 0.00514373
56.945 0.00822431
57.14 -0.0104027
57.335 -0.0128282
57.53 0.0117967
57.725 0.00263812
57.92 0.0201793
58.115 -0.00144848
58.31 0.00619537
58.505 -0.00354971
58.7 -0.00399387
58.895 0.0251573
59.09 0.0478515
59.285 0.0177646
59.48 0.0207449
59.675 -0.002328
59.87 -0.00841448
60.065 -0.0157345
60.26 -0.00665463
60.455 -0.00175076
60.65 0.0149377
60.845 -0.0175194
61.04 0.0097253
61.235 0.00815168
61.43 0.000286174
61.625 0.00222336
61.82 0.018526
62.015 -0.0048623
62.21 0.0169539
62.405 -0.00804254
62.6 -0.00266787
62.795 0.0016257
62.99 0.00324406
63.185 0.00934754
63.38 0.00206655
63.575 0.0100436
63.77 -0.0142715
63.965 -0.00887546
64.16 -0.00267
64.355 0.0109689
64.55 -0.00422057
64.745 -0.013475
64.94 0.0423569
65.135 0.122826
65.33 0.160267
65.525 0.0882119
65.72 0.0252726
65.915 0.0117944
66.11 -0.00648163
66.305 0.0303862
66.5 -0.00396286
66.695 0.00747922
66.89 0.00922488
67.085 0.00495171
67.28 0.00281421
67.475 0.0031084
67.67 0.0156378
67.865 0.0176912
68.06 0.00937209
68.255 -0.00241
68.45 0.0165839
68.645 0.00810155
68.84 -0.00192023
69.035 0.0311907
69.23 0.019199
69.425 0.0129276
69.62 0.00379731
69.815 -0.0117114
70.01 0.00960603
70.205 0.0121904
70.4 0.00517006
70.595 -0.00111339
70.79 -0.0035772
70.985 -0.0130353
71.085 -0.0192856