File: data/xrd/xy/2019-05-23TO2_12_25.720560+00_00_LBL_A1.xy
'Id: "" Comment: "Integrate frame 06062019_neo_Pentyl_01_002.gfrmwith cursor Wedge Cursor #1" Operator: "UC Berkeley" Anode: "Co" Scantype: "TwoTheta" TimePerStep: "600"
14.35 -0.024906
14.52 -0.012386
14.69 -0.000883529
14.86 0.0261968
15.03 0.0487341
15.2 0.02959
15.37 0.022421
15.54 0.0322009
15.71 0.085866
15.88 0.0169478
16.05 0.0210088
16.22 0.0878395
16.39 0.0935168
16.56 0.086273
16.73 0.0884082
16.9 0.176329
17.07 0.230022
17.24 0.0255805
17.41 0.0386926
17.58 0.0350271
17.75 0.0653537
17.92 0.0346054
18.09 0.03698
18.26 0.0484987
18.43 0.0846618
18.6 0.0510146
18.77 0.0452966
18.94 0.0436935
19.11 0.112095
19.28 0.137599
19.45 0.52136
19.62 0.103249
19.79 0.00425522
19.96 0.0456092
20.13 0.0677099
20.3 0.0410155
20.47 0.017965
20.64 0.0424932
20.81 0.0024939
20.98 0.0320752
21.15 0.0165243
21.32 0.0465025
21.49 -0.00619139
21.66 0.0252363
21.83 0.0135593
22 0.204935
22.17 0.0847226
22.34 0.0441208
22.51 0.0797384
22.68 0.0728466
22.85 0.204546
23.02 0.156635
23.19 0.0163882
23.36 0.0441094
23.53 0.0315201
23.7 0.0775287
23.87 0.109663
24.04 0.662514
24.21 0.413561
24.38 0.0760643
24.55 0.0231666
24.72 0.0515421
24.89 0.203943
25.06 0.231647
25.23 0.0624715
25.4 -0.007779
25.57 0.193115
25.74 0.0628244
25.91 0.247649
26.08 1.51798
26.25 0.19253
26.42 0.0506925
26.59 0.0458038
26.76 0.0205323
26.93 -0.0114593
27.1 0.00277272
27.27 0.163729
27.44 0.0519371
27.61 0.0551501
27.78 0.0236307
27.95 0.0556953
28.12 0.168031
28.29 0.0870307
28.46 0.23359
28.63 0.80063
28.8 0.100443
28.97 0.0142293
29.14 0.0204468
29.31 0.0871654
29.48 0.0304542
29.65 0.0502465
29.82 0.074456
29.99 0.0207511
30.16 0.191503
30.33 0.0688782
30.5 0.00484834
30.67 0.0293073
30.84 0.169208
31.01 0.0655508
31.18 -0.00178852
31.35 0.0718759
31.52 0.0753373
31.69 0.487193
31.86 0.398555
32.03 0.0144818
32.2 0.18515
32.37 0.924869
32.54 0.391784
32.71 0.554786
32.88 0.170495
33.05 0.24262
33.22 0.0666728
33.39 0.26565
33.56 0.333069
33.73 0.030095
33.9 0.101047
34.07 0.449865
34.24 0.262004
34.41 0.477049
34.58 0.117439
34.75 0.101157
34.92 0.416587
35.09 0.165096
35.26 0.0538519
35.43 0.0468121
35.6 0.160105
35.77 0.627146
35.94 1.06772
36.11 0.590068
36.28 0.071433
36.45 -0.00655487
36.62 0.00641103
36.79 0.0615711
36.96 0.135966
37.13 0.017923
37.3 -0.000737676
37.47 -0.00150681
37.64 0.0261546
37.81 0.0179086
37.98 0.0369069
38.15 0.00819906
38.32 0.0248513
38.49 0.00711757
38.66 0.00485205
38.83 0.0422856
39 0.0428929
39.17 0.029255
39.34 0.0727028
39.51 0.135039
39.68 0.300381
39.85 0.432183
40.02 0.136102
40.19 0.0850428
40.36 0.136292
40.53 0.249005
40.7 0.793992
40.87 0.500298
41.04 0.145024
41.21 0.00279732
41.38 0.0103084
41.55 0.0726176
41.72 0.116139
41.89 0.0548257
42.06 0.0230012
42.23 0.00183842
42.4 0.0911506
42.57 0.130807
42.74 0.146456
42.91 0.0957049
43.08 0.0400131
43.25 0.0104987
43.42 0.00336963
43.59 0.00279977
43.76 -0.00129417
43.93 0.0474943
44.1 0.0310201
44.27 0.024799
44.44 0.0558206
44.61 0.346448
44.78 0.186325
44.95 0.22102
45.12 0.228401
45.29 0.120889
45.46 0.152544
45.63 0.284289
45.8 0.175834
45.97 0.0882012
46.14 0.0529407
46.31 0.184791
46.48 0.55999
46.65 0.241783
46.82 0.211807
46.99 0.156897
47.16 0.190378
47.33 0.243855
47.5 0.22964
47.67 0.170636
47.84 0.060492
48.01 0.0242944
48.18 0.0131436
48.35 0.0232811
48.52 0.00136517
48.69 -0.0114115
48.86 0.0155771
49.03 0.0308148
49.2 0.226551
49.37 0.490741
49.54 0.139529
49.71 0.0534654
49.88 0.159433
50.05 0.215536
50.22 0.394581
50.39 0.137056
50.56 0.0559571
50.73 0.0310546
50.9 0.0412663
51.07 0.071401
51.24 0.135466
51.41 0.088356
51.58 0.122751
51.75 0.195554
51.92 0.201452
52.09 0.601613
52.26 0.784284
52.43 0.187646
52.6 0.0875933
52.77 0.0953428
52.94 0.100822
53.11 0.185558
53.28 0.296574
53.45 0.198963
53.62 0.125893
53.79 0.0776657
53.96 0.0605233
54.13 0.18233
54.3 0.177182
54.47 0.134869
54.64 0.0589246
54.81 -0.0124089
54.98 -0.000530642
55.15 -0.00357272
55.32 0.00184399
55.49 0.000801473
55.66 0.0235974
55.83 0.0331421
56 0.035178
56.17 0.0364445
56.34 0.0657332
56.51 0.0534301
56.68 0.0455107
56.85 0.0149716
57.02 0.00812239
57.19 0.0189125
57.36 0.00818014
57.53 0.0467574
57.7 0.125644
57.87 0.0566825
58.04 0.0678454
58.21 0.033276
58.38 0.0209135
58.55 0.0197162
58.72 0.00141487
58.89 0.00753651
59.06 0.0477365
59.23 0.0831466
59.4 0.0536405
59.57 0.0266119
59.74 0.0153186
59.91 0.0212083
60.08 0.0262608
60.25 0.0492989
60.42 0.0513254
60.59 0.0335913
60.76 0.0790094
60.93 0.101833
61.1 0.0265252
61.27 0.0549258
61.44 0.0433981
61.61 0.000409129
61.78 0.00839657
61.95 0.00220524
62.12 -0.00998022
62.29 0.0149747
62.46 0.0166931
62.63 0.0143256
62.8 0.00657887
62.97 -0.000113707
63.14 -0.00218501
63.31 0.00776872
63.48 0.0203943
63.65 0.0230141
63.82 0.0405219
63.99 0.0151613
64.16 -0.00749827
64.33 -0.00601321
64.5 0.00911894
64.6 -0.0175416