File: data/xrd/xy/2019-06-21T14_37_13.758897+00_00_LBL_F3.xy
'Id: "" Comment: "Integrate frame perovskite_05_001.gfrmwith cursor Wedge Cursor #5" Operator: "UC Berkeley" Anode: "Co" Scantype: "TwoTheta" TimePerStep: "400"
13.77 -0.0316857
13.97 0.0898141
14.17 0.0242377
14.37 0.106307
14.57 0.105445
14.77 0.0196945
14.97 0.0403003
15.17 0.0259121
15.37 0.0380856
15.57 0.0477418
15.77 0.00364616
15.97 0.0980224
16.17 0.00598522
16.37 0.0239259
16.57 0.0138434
16.77 0.0200294
16.97 0.00135092
17.17 -0.0112644
17.37 0.0444556
17.57 0.0811023
17.77 0.0587779
17.97 0.0470569
18.17 0.0676943
18.37 0.049433
18.57 0.0226988
18.77 0.0575483
18.97 0.00366357
19.17 0.0397071
19.37 -0.0258691
19.57 0.025394
19.77 0.00743105
19.97 0.0445542
20.17 0.0944395
20.37 0.036019
20.57 0.000981458
20.77 0.0106616
20.97 0.0408922
21.17 0.0492642
21.37 0.0299278
21.57 -0.013287
21.77 0.0436489
21.97 0.0857376
22.17 0.0141947
22.37 0.0435032
22.57 0.0253485
22.77 0.0161113
22.97 0.0113304
23.17 0.032264
23.37 0.0390694
23.57 0.044099
23.77 0.0328464
23.97 0.0635593
24.17 -0.00705004
24.37 0.0288845
24.57 0.0127507
24.77 0.0211186
24.97 0.0396987
25.17 0.0342793
25.37 0.042124
25.57 0.0478464
25.77 0.00010609
25.97 0.0216973
26.17 -0.0103367
26.37 0.0551788
26.57 0.0379591
26.77 0.00961211
26.97 0.0205409
27.17 0.0194882
27.37 0.0354732
27.57 0.0290256
27.77 0.0471231
27.97 0.0619963
28.17 0.0611467
28.37 0.0209147
28.57 0.056745
28.77 0.125911
28.97 -0.00231622
29.17 0.0309327
29.37 0.0325635
29.57 0.00836875
29.77 0.0111861
29.97 0.465965
30.17 0.904516
30.37 0.065179
30.57 -0.00895134
30.77 0.00826761
30.97 0.000557613
31.17 -0.0136912
31.37 0.00623311
31.57 -2.1828e-05
31.77 0.039548
31.97 0.0231453
32.17 -0.00348289
32.37 0.0207939
32.57 0.0110757
32.77 0.0148596
32.97 0.0385502
33.17 0.00190805
33.37 0.0238874
33.57 0.0258114
33.77 6.48539e-05
33.97 0.00281967
34.17 0.00518427
34.37 0.00893197
34.57 0.0743604
34.77 1.19133
34.97 0.14
35.17 -0.00121265
35.37 -0.0217887
35.57 -0.00159277
35.77 -0.011487
35.97 0.0443786
36.17 0.349173
36.37 1.6208
36.57 0.128738
36.77 0.00832429
36.97 0.00518161
37.17 0.0136208
37.37 0.272477
37.57 0.369806
37.77 0.0133026
37.97 0.00366255
38.17 0.0235483
38.37 0.0384337
38.57 0.290033
38.77 0.0390957
38.97 0.0127789
39.17 -0.00739072
39.37 0.00122524
39.57 0.0214341
39.77 -0.00360613
39.97 0.0108268
40.17 0.0272238
40.37 0.00618016
40.57 0.00268767
40.77 0.0191177
40.97 0.0176144
41.17 0.032663
41.37 0.564117
41.57 0.164477
41.77 0.0466697
41.97 -0.0141582
42.17 0.0123827
42.37 0.00769415
42.57 0.0222555
42.77 0.0117215
42.97 0.0335037
43.17 -0.00508576
43.37 0.0190665
43.57 0.0151574
43.77 -0.0123557
43.97 0.0220155
44.17 0.0343831
44.37 0.00548188
44.57 0.00191241
44.77 0.299212
44.97 0.0554724
45.17 -0.0146808
45.37 -0.00025068
45.57 0.0225256
45.77 -0.0142896
45.97 -0.018589
46.17 -0.0100001
46.37 0.00143996
46.57 0.0360105
46.77 0.0317785
46.97 0.00272118
47.17 0.00216562
47.37 0.034595
47.57 0.1518
47.77 0.131113
47.97 0.252825
48.17 3.54354
48.37 1.10477
48.57 0.0681527
48.77 0.0266704
48.97 0.0962227
49.17 0.380966
49.37 0.0209665
49.57 0.00366648
49.77 0.0207778
49.97 0.0481499
50.17 0.764305
50.37 1.1799
50.57 0.0926949
50.77 0.00609685
50.97 0.0120495
51.17 0.00922573
51.37 -0.000174147
51.57 -0.00687232
51.77 0.180858
51.97 0.182817
52.17 0.106179
52.37 0.015605
52.57 -0.00683125
52.77 0.00638418
52.97 0.00125384
53.17 -0.017647
53.37 0.0054753
53.57 0.0127454
53.77 0.0719516
53.97 0.0587132
54.17 -0.00836044
54.37 0.0132291
54.57 0.00483262
54.77 -0.00466817
54.97 -0.0102251
55.17 0.0553061
55.37 0.0270188
55.57 0.0143869
55.77 0.00615545
55.97 0.0120736
56.17 -0.00780614
56.37 -0.000550069
56.57 -0.00499909
56.77 0.00605419
56.97 0.0746011
57.17 0.0869452
57.37 0.0180885
57.57 0.0098755
57.77 0.506296
57.97 0.778253
58.17 0.0247032
58.37 0.0143484
58.57 0.0251846
58.77 0.0224596
58.97 0.0214496
59.17 -0.00463735
59.37 -0.00284455
59.57 -0.0104852
59.77 -4.4779e-05
59.97 0.0114983
60.17 0.022337
60.37 -0.0145391
60.57 0.0103908
60.77 -0.00329431
60.97 0.011125
61.17 0.0108754
61.37 -0.00319562
61.57 0.0349917
61.77 0.475908
61.97 0.288158
62.17 -0.00224757
62.37 0.035812
62.57 0.330394
62.77 0.21802
62.97 0.00570997
63.17 0.00573726
63.37 0.044831
63.57 -0.0182896
63.77 -0.0143814
63.97 0.0104604
64.17 -0.00295313
64.37 0.00485925
64.57 0.00561278
64.77 0.0379792
64.97 0.0880693
65.17 0.0333097
65.37 0.0581077
65.57 0.0242355
65.77 -0.00577431
65.97 0.00414442
66.17 -0.00948367
66.37 0.0224568
66.57 0.0104007
66.77 0.0103467
66.97 0.014277
67.17 -0.0097341
67.37 -0.00765793
67.57 0.0167405
67.77 0.0691636
67.97 0.10483
68.17 0.0216617
68.37 0.00678092
68.57 0.00943886
68.77 0.00119512
68.97 -0.00065966
69.17 0.0137778
69.37 0.0142002
69.57 0.00351314
69.77 0.0168826
69.97 0.0322459
70.17 0.0311551
70.37 0.0243447
70.57 0.0157119
70.77 0.0104029
70.97 0.0199607
71.17 0.327869
71.37 0.413972
71.57 0.135526
71.77 0.0137596
71.97 0.0152027
72.17 0.0369923
72.37 0.047306
72.57 0.00181428
72.77 -0.0142686
72.97 0.00237973
73.17 -0.00219505
73.3 -0.0189622