File: data/xrd/xy/2019-05-30T15_13_14.483373+00_00_LBL_F11.xy
'Id: "" Comment: "Integrate frame EtNH3I_iPropyl_07_003.gfrmwith cursor Wedge Cursor #1" Operator: "UC Berkeley" Anode: "Co" Scantype: "TwoTheta" TimePerStep: "300"
14.86 -0.0364104
15.03 0.0131752
15.2 0.107034
15.37 0.0384659
15.54 0.0359379
15.71 0.0792579
15.88 0.0451932
16.05 0.0712812
16.22 0.0958349
16.39 0.00959049
16.56 0.0826362
16.73 0.0715368
16.9 0.048697
17.07 0.0333969
17.24 0.0448523
17.41 0.00157687
17.58 0.0605632
17.75 0.0112254
17.92 0.0162598
18.09 0.0257137
18.26 0.0316168
18.43 0.0252225
18.6 0.0686286
18.77 0.0539458
18.94 -0.0146294
19.11 0.0212901
19.28 0.00560293
19.45 0.00176974
19.62 0.0683527
19.79 0.0107762
19.96 0.0245441
20.13 0.0670238
20.3 0.029001
20.47 0.0268683
20.64 0.0193072
20.81 -0.0129657
20.98 0.0300493
21.15 0.0233219
21.32 0.0215208
21.49 0.0578202
21.66 0.0376766
21.83 0.0676772
22 0.0813971
22.17 0.0763434
22.34 0.0516806
22.51 0.0804368
22.68 0.059919
22.85 0.0557
23.02 0.0921352
23.19 0.0859908
23.36 0.0948265
23.53 0.0661835
23.7 0.00342428
23.87 0.0142322
24.04 0.0487007
24.21 -0.0211338
24.38 0.0162543
24.55 0.0427092
24.72 0.0231434
24.89 0.0336451
25.06 0.165236
25.23 0.418353
25.4 0.227973
25.57 0.0920487
25.74 0.0760888
25.91 0.0282513
26.08 0.0304707
26.25 0.0535323
26.42 0.0538179
26.59 0.0151515
26.76 -0.0085725
26.93 0.00675381
27.1 0.0287829
27.27 0.0900709
27.44 0.133733
27.61 0.0789976
27.78 0.178822
27.95 0.218846
28.12 0.135623
28.29 0.0914478
28.46 0.0791433
28.63 0.0535468
28.8 0.126401
28.97 0.208066
29.14 0.225486
29.31 0.190581
29.48 0.109268
29.65 0.0935638
29.82 0.0879804
29.99 0.0661776
30.16 0.0741223
30.33 0.148379
30.5 0.311226
30.67 0.746758
30.84 0.996018
31.01 0.686246
31.18 0.309851
31.35 0.192004
31.52 0.0834968
31.69 0.0284165
31.86 0.0253951
32.03 0.0660735
32.2 0.0765263
32.37 0.133954
32.54 0.103564
32.71 0.0128314
32.88 0.0290204
33.05 -0.00638348
33.22 -0.000987773
33.39 0.0292991
33.56 0.0607719
33.73 0.0617335
33.9 0.0541526
34.07 0.0370971
34.24 0.0910107
34.41 0.0415864
34.58 0.0293899
34.75 0.080535
34.92 0.083519
35.09 0.103773
35.26 0.114016
35.43 0.258757
35.6 0.365369
35.77 0.260959
35.94 0.198163
36.11 0.112167
36.28 0.060923
36.45 0.051116
36.62 0.0379253
36.79 0.0804996
36.96 0.086959
37.13 0.0809986
37.3 0.066021
37.47 0.0960939
37.64 0.0229345
37.81 0.00373338
37.98 0.00772088
38.15 0.00446865
38.32 0.00536136
38.49 -0.00769444
38.66 -0.00424267
38.83 0.036154
39 0.0544802
39.17 0.0256197
39.34 -0.00206331
39.51 -0.00480246
39.68 0.00446581
39.85 -0.00745381
40.02 0.0334799
40.19 0.0783365
40.36 0.0494791
40.53 0.0357219
40.7 0.0315518
40.87 0.0109309
41.04 0.00969176
41.21 0.0045062
41.38 -0.0011225
41.55 -0.00504218
41.72 -0.0121048
41.89 -0.0173913
42.06 -0.00855279
42.23 -0.0197931
42.4 -0.0145569
42.57 0.0193784
42.74 0.0168985
42.91 0.0844139
43.08 0.0879753
43.25 0.344968
43.42 0.806147
43.59 0.905147
43.76 0.432923
43.93 0.178857
44.1 0.149031
44.27 0.124858
44.44 0.092528
44.61 0.0164618
44.78 0.00947364
44.95 0.0364403
45.12 0.0154345
45.29 0.0295144
45.46 0.000840625
45.63 0.0208193
45.8 0.0135048
45.97 0.119441
46.14 0.224172
46.31 0.240104
46.48 0.0793336
46.65 0.0580575
46.82 0.110386
46.99 0.151422
47.16 0.205179
47.33 0.218924
47.5 0.20107
47.67 0.241469
47.84 0.187317
48.01 0.190003
48.18 0.123127
48.35 0.0657357
48.52 0.0365103
48.69 0.0386459
48.86 0.0242025
49.03 0.019364
49.2 0.0266236
49.37 0.0382067
49.54 -0.0082707
49.71 -0.00460624
49.88 -0.00654425
50.05 0.00135172
50.22 -0.00909602
50.39 0.00115229
50.56 0.0199957
50.73 0.0852607
50.9 0.152126
51.07 0.168963
51.24 0.109895
51.41 0.0648372
51.58 0.0306519
51.75 0.023965
51.92 0.0221856
52.09 0.0102769
52.26 0.00099441
52.43 0.00551064
52.6 0.0217837
52.77 0.0334044
52.94 0.0343452
53.11 -0.000705852
53.28 0.00533036
53.45 -0.0201796
53.62 0.00481562
53.79 -0.0192095
53.96 0.00189341
54.13 0.0214974
54.3 0.0252792
54.47 0.053601
54.64 0.0625529
54.81 0.030093
54.98 0.0464187
55.15 0.0352229
55.32 0.0115266
55.49 0.0248181
55.66 0.0318039
55.83 0.017314
56 0.00592701
56.17 -0.013155
56.34 0.000712206
56.51 -0.00274959
56.68 0.0111072
56.85 0.0524697
57.02 0.054736
57.19 0.122647
57.36 0.15997
57.53 0.16967
57.7 0.140475
57.87 0.100787
58.04 0.0546183
58.21 0.0346985
58.38 0.0287266
58.55 0.0152113
58.72 0.0313541
58.89 0.0462289
59.06 0.0100697
59.23 0.0157226
59.4 -0.00260864
59.57 -0.00779386
59.74 0.000482243
59.91 -0.00453287
60.08 -0.00861058
60.25 0.00243773
60.42 0.0226034
60.59 0.0178779
60.76 -0.0138327
60.93 0.00264971
61.1 -0.00645874
61.27 -0.0133952
61.44 0.00751762
61.61 0.019468
61.78 0.012013
61.95 0.00393233
62.12 0.00392177
62.29 0.0253107
62.46 0.0110049
62.63 0.0048499
62.8 0.0130492
62.97 0.0147147
63.14 0.0452405
63.31 0.0467388
63.48 0.039114
63.65 0.0368782
63.82 0.0108223
63.99 0.011318
64.16 0.0100563
64.33 0.0235582
64.5 0.0109124
64.67 0.00538091
64.84 0.00349603
65.01 0.00240921
65.18 -0.0178686
65.35 0.00239007
65.52 -0.00992226
65.69 -0.00158915
65.745 -0.0245092