File: data/xrd/xy/2019-08-02T12_18_03.108790+00_00_LBL_1.xy
'Id: "" Comment: "Integrate frame 20190806_tbutyl_phenylnh30_01_002.gfrmwith cursor Wedge Cursor #1" Operator: "UC Berkeley" Anode: "Co" Scantype: "TwoTheta" TimePerStep: "1200"
20.225 -0.0175202
20.4 0.0237853
20.575 0.00373796
20.75 0.0167953
20.925 0.0262123
21.1 0.0228144
21.275 0.0268077
21.45 0.0554726
21.625 0.0126107
21.8 0.0123062
21.975 0.0391289
22.15 0.0169677
22.325 0.025515
22.5 0.0303029
22.675 0.0400862
22.85 0.0101539
23.025 0.00986162
23.2 0.0139813
23.375 0.0370742
23.55 0.0205418
23.725 -0.00707638
23.9 -0.00496994
24.075 0.0164532
24.25 0.02535
24.425 -0.00536749
24.6 0.00436196
24.775 0.0098603
24.95 0.0467449
25.125 0.0364627
25.3 0.0239514
25.475 0.0108696
25.65 -0.00936536
25.825 -0.000890043
26 0.0117746
26.175 0.0364948
26.35 0.0153984
26.525 0.0101386
26.7 0.0186732
26.875 0.00631251
27.05 0.0142722
27.225 0.00780082
27.4 0.0358566
27.575 -0.0011493
27.75 0.00488708
27.925 0.183268
28.1 0.0360659
28.275 -0.00721398
28.45 0.0305205
28.625 0.0158657
28.8 0.0217789
28.975 0.117348
29.15 0.0214551
29.325 -0.000817933
29.5 -0.00901857
29.675 0.0050477
29.85 0.0044686
30.025 0.00550873
30.2 0.0304055
30.375 0.0219102
30.55 -0.014868
30.725 0.0136869
30.9 0.0587436
31.075 0.0168464
31.25 0.0104503
31.425 0.00460914
31.6 0.0220756
31.775 0.0171501
31.95 -0.00296156
32.125 0.00245853
32.3 0.0549904
32.475 0.0833408
32.65 -0.0120914
32.825 -0.000591628
33 0.073688
33.175 0.00109383
33.35 -0.00178277
33.525 -0.00100703
33.7 0.00771745
33.875 0.00887026
34.05 0.00859926
34.225 -0.0137291
34.4 -0.00298792
34.575 0.0295913
34.75 0.0867146
34.925 0.0124981
35.1 0.00918122
35.275 0.00152759
35.45 0.00646419
35.625 0.00177508
35.8 0.0106402
35.975 -0.00873226
36.15 0.000168161
36.325 0.0225482
36.5 0.000389149
36.675 -0.00245445
36.85 1.83222e-05
37.025 0.0133479
37.2 0.00376903
37.375 -0.000216964
37.55 0.00224249
37.725 -0.0126314
37.9 -0.000348971
38.075 -0.00127637
38.25 -0.0110919
38.425 -0.00305312
38.6 -0.0109908
38.775 -0.00251466
38.95 0.00288293
39.125 0.000542978
39.3 0.00822134
39.475 -0.00842389
39.65 0.0011354
39.825 0.00438648
40 0.0118416
40.175 0.0101711
40.35 0.00130671
40.525 0.017691
40.7 0.00721877
40.875 0.00884387
41.05 -0.00599409
41.225 -0.00212723
41.4 -0.00510181
41.575 0.0140837
41.75 0.016615
41.925 -0.00266245
42.1 0.0155618
42.275 0.00194163
42.45 0.0077154
42.625 0.00718542
42.8 -0.0038745
42.975 0.0103756
43.15 0.0112707
43.325 0.000786938
43.5 -0.000695037
43.675 0.000871498
43.85 0.00430908
44.025 0.00751254
44.2 0.00673732
44.375 0.00397695
44.55 0.0101535
44.725 -0.000487178
44.9 -0.00699729
45.075 0.00347896
45.25 0.00396136
45.425 0.00158809
45.6 0.0014654
45.775 0.0080244
45.95 0.016207
46.125 0.00816071
46.3 0.00808279
46.475 -0.000415144
46.65 -1.09755e-05
46.825 -0.00466437
47 -0.00621844
47.175 -0.00145124
47.35 -0.00868147
47.525 -0.00585834
47.7 -0.0100519
47.875 -0.00289476
48.05 0.0086417
48.225 -0.000984945
48.4 0.00073309
48.575 0.00624656
48.75 0.00135069
48.925 0.00761445
49.1 -0.000978973
49.275 -0.00379976
49.45 0.00289528
49.625 -0.00632286
49.8 -0.00587825
49.975 0.00198624
50.15 -0.00705662
50.325 0.00265301
50.5 -0.00242028
50.675 -0.00136712
50.85 -0.00618642
51.025 -0.00135053
51.2 0.0029781
51.375 -0.00309792
51.55 -0.00927337
51.725 -0.00330396
51.9 0.000541999
52.075 0.00496088
52.25 -0.00196767
52.425 0.00473164
52.6 -0.00196459
52.775 0.00478854
52.95 0.000614906
53.125 -0.00476584
53.3 0.00471968
53.475 -0.00032021
53.65 0.00288959
53.825 -0.00197253
54 0.00309369
54.175 0.0042531
54.35 0.00306403
54.525 -0.00424238
54.7 -0.00266115
54.875 0.00388816
55.05 -0.00107824
55.225 -0.00655209
55.4 0.00267386
55.575 0.00446543
55.75 0.00442164
55.925 -0.00327271
56.1 -0.000714599
56.275 0.00803372
56.45 0.00214861
56.625 -0.00420487
56.8 0.00256511
56.975 0.00617923
57.15 -0.00555566
57.325 0.00499386
57.5 0.00126181
57.675 0.00987637
57.85 0.00722843
58.025 -0.00487679
58.2 0.00174588
58.375 -0.00134635
58.55 0.00756686
58.725 0.00682237
58.9 -0.00143092
59.075 0.00582483
59.25 0.00822753
59.425 0.00741324
59.6 -0.00339119
59.775 0.00164706
59.95 -0.00531238
60.125 0.000747893
60.3 0.00354404
60.475 -0.00188422
60.65 0.00204326
60.825 0.00417452
61 0.00320305
61.175 0.0103497
61.35 -0.00421707
61.525 0.00188697
61.7 -0.00122868
61.875 0.00415349
62.05 0.00334452
62.225 0.0010155
62.4 -0.00534337
62.575 0.000919426
62.75 0.00770268
62.925 -0.00151258
63.1 -0.00114487
63.275 -0.00130797
63.45 -0.000473714
63.625 -0.00168878
63.8 0.00501697
63.975 0.00136577
64.15 0.00613898
64.325 0.00758547
64.5 0.0049257
64.675 0.00351091
64.85 0.0121328
65.025 -0.00152173
65.2 -0.000545456
65.375 0.00817208
65.55 -0.000344341
65.725 -0.00360543
65.9 -0.00281882
66.075 -0.00273214
66.25 0.00780078
66.425 0.00167371
66.6 -0.000309473
66.775 0.00722154
66.95 0.00368925
67.125 0.00793158
67.3 0.00745842
67.475 0.00209757
67.65 0.00187462
67.825 0.00546765
68 0.00354035
68.175 0.00728958
68.35 0.00319684
68.525 0.00480834
68.7 -0.00303247
68.875 -0.00525188
69.05 -0.00603124
69.225 -0.00117815
69.4 -0.00216138
69.575 0.00490801
69.75 -0.00269358
69.925 0.00240863
70.1 0.00420316
70.275 -0.00349738
70.45 0.000741212
70.625 0.00547976
70.8 -2.62138e-06
70.975 -0.00378972
71.15 0.00333528
71.325 0.00553811
71.5 0.00244064
71.675 0.00712292
71.85 -0.00116235
72.025 0.00569283
72.19 -0.00620592