File: data/xrd/xy/2019-06-10T21_14_00.866379+00_00_LBL_F7.xy
'Id: "" Comment: "Integrate frame 06132019_dimethyl_ipropyl_03_002.gfrmwith cursor Wedge Cursor #3" Operator: "UC Berkeley" Anode: "Co" Scantype: "TwoTheta" TimePerStep: "480"
16.825 -0.0290251
17.02 0.145178
17.215 0.0180308
17.41 0.0690683
17.605 0.0213715
17.8 0.0280145
17.995 0.0186736
18.19 -0.0195317
18.385 0.13764
18.58 0.0325905
18.775 0.0848521
18.97 0.0126038
19.165 0.0187535
19.36 0.0309958
19.555 0.0365034
19.75 -0.0272727
19.945 0.0486701
20.14 0.0910443
20.335 0.0197032
20.53 0.0469579
20.725 0.0419148
20.92 0.0548006
21.115 0.0715336
21.31 0.0131298
21.505 0.0405595
21.7 -0.00403064
21.895 0.0491099
22.09 0.0593151
22.285 0.0182363
22.48 0.0654763
22.675 0.000360777
22.87 0.0640866
23.065 0.0137235
23.26 0.0969032
23.455 0.380644
23.65 0.159881
23.845 0.0816143
24.04 0.0767086
24.235 0.0118169
24.43 0.0260558
24.625 0.0206975
24.82 -0.0198089
25.015 0.0640179
25.21 0.195282
25.405 0.0575807
25.6 0.0386164
25.795 0.041355
25.99 0.0430421
26.185 0.0547508
26.38 0.0722859
26.575 0.0644914
26.77 0.0472053
26.965 0.0497549
27.16 0.0829292
27.355 0.0234495
27.55 0.0134206
27.745 0.041688
27.94 0.0837276
28.135 0.0419908
28.33 0.0425626
28.525 0.103269
28.72 0.451661
28.915 0.0835306
29.11 0.00783372
29.305 0.0280394
29.5 0.0083871
29.695 0.133929
29.89 0.890228
30.085 3.92577
30.28 0.447977
30.475 0.110476
30.67 0.0424719
30.865 0.0262819
31.06 0.0352353
31.255 0.0193991
31.45 0.056246
31.645 0.019575
31.84 0.0104118
32.035 0.0314591
32.23 0.0413832
32.425 0.0324407
32.62 0.0277954
32.815 0.032005
33.01 0.0262123
33.205 -0.0242322
33.4 0.0136605
33.595 0.0115427
33.79 0.0303964
33.985 0.0181499
34.18 -0.0138527
34.375 0.0538699
34.57 0.502039
34.765 1.62211
34.96 0.30373
35.155 0.0361625
35.35 -0.021478
35.545 0.0259084
35.74 0.0222863
35.935 0.0817121
36.13 1.14332
36.325 2.17686
36.52 0.237535
36.715 0.0292349
36.91 0.00080349
37.105 0.0978379
37.3 0.833376
37.495 1.485
37.69 0.29188
37.885 0.028373
38.08 -0.0121215
38.275 0.024791
38.47 0.296787
38.665 0.15503
38.86 0.0238429
39.055 0.00587843
39.25 -0.000437167
39.445 0.0110327
39.64 0.0208223
39.835 0.00518362
40.03 0.0174043
40.225 0.0157879
40.42 0.0133202
40.615 0.0557631
40.81 0.073395
41.005 0.0266787
41.2 0.138856
41.395 0.299951
41.59 0.0609368
41.785 0.0399872
41.98 0.0137298
42.175 0.0206067
42.37 -0.000950364
42.565 0.0154416
42.76 0.0131822
42.955 0.00946865
43.15 0.0250414
43.345 0.0193328
43.54 0.0423457
43.735 0.0137388
43.93 0.00403822
44.125 0.00474225
44.32 0.0375804
44.515 0.190822
44.71 0.399711
44.905 0.212768
45.1 0.0397549
45.295 -0.0181723
45.49 -0.00160575
45.685 -0.00937657
45.88 0.0102032
46.075 -0.00960176
46.27 -0.00598257
46.465 -0.0101583
46.66 0.0260309
46.855 0.0200579
47.05 0.015278
47.245 0.0637463
47.44 0.230847
47.635 0.337521
47.83 0.456587
48.025 1.88856
48.22 1.90919
48.415 0.434088
48.61 0.116664
48.805 0.188404
49 0.445088
49.195 0.355462
49.39 0.0826481
49.585 0.0237946
49.78 0.042028
49.975 0.32463
50.17 0.931805
50.365 0.646487
50.56 0.135976
50.755 0.0243978
50.95 0.00145965
51.145 -0.0132282
51.34 -0.0187951
51.535 0.030744
51.73 0.149342
51.925 0.236425
52.12 0.154644
52.315 0.0449729
52.51 0.00628462
52.705 0.00746314
52.9 0.00144513
53.095 0.0112109
53.29 0.0131373
53.485 0.0567286
53.68 0.21856
53.875 0.226996
54.07 0.0452623
54.265 0.00279117
54.46 -0.00565066
54.655 -0.00208187
54.85 0.0050162
55.045 0.00967158
55.24 0.022342
55.435 0.00675191
55.63 -0.00196189
55.825 0.00657727
56.02 0.0326422
56.215 0.00340523
56.41 -0.010502
56.605 0.00900974
56.8 0.0604305
56.995 0.110857
57.19 0.0891991
57.385 0.0783801
57.58 0.316109
57.775 0.437622
57.97 0.367752
58.165 0.0983189
58.36 0.0457271
58.555 0.00936196
58.75 -0.00340026
58.945 0.00554568
59.14 0.0195088
59.335 -0.00507292
59.53 0.0040996
59.725 0.0116349
59.92 -0.00839063
60.115 -0.00757585
60.31 0.0176814
60.505 -0.00564869
60.7 0.0221685
60.895 -0.00340498
61.09 0.0121524
61.285 0.0732275
61.48 0.133794
61.675 0.258325
61.87 0.266895
62.065 0.133034
62.26 0.157405
62.455 0.259448
62.65 0.270126
62.845 0.104726
63.04 0.0470923
63.235 0.0281293
63.43 0.0175635
63.625 0.0136625
63.82 0.0229022
64.015 0.0195388
64.21 0.00529925
64.405 0.0174596
64.6 0.0618461
64.795 0.141992
64.99 0.194002
65.185 0.0922652
65.38 0.0603435
65.575 0.0272005
65.77 0.0393904
65.965 0.0213996
66.16 0.00144767
66.355 0.0134174
66.55 0.0258914
66.745 0.0139958
66.94 -0.0101881
67.135 0.0123267
67.33 -0.00117869
67.525 0.0442231
67.72 0.0716455
67.915 0.0979676
68.11 0.0602077
68.305 0.0319204
68.5 0.0418196
68.695 0.0261177
68.89 0.0181181
69.085 0.013339
69.28 0.0233296
69.475 0.00627324
69.67 0.0333612
69.865 0.0475251
70.06 0.0513248
70.255 0.0460159
70.45 0.00683279
70.645 0.0138232
70.84 0.104141
71.035 0.185091
71.23 0.280457
71.425 0.183687
71.62 0.0632451
71.815 0.00949694
72.01 -0.00184397
72.205 0.0147563
72.4 0.0257113
72.595 0.00782536
72.79 0.0210572
72.985 0.0558656
73.18 0.121855
73.375 0.137323
73.57 0.133531
73.765 0.0788582
73.96 0.0272415
74.155 -0.00871661
74.35 -0.0173523