File: data/xrd/xy/2019-05-29T19_49_43.354126+00_00_LBL_A1.xy
'Id: "" Comment: "Integrate frame 060320190_03_002.gfrmwith cursor Wedge Cursor #3" Operator: "UC Berkeley" Anode: "Co" Scantype: "TwoTheta" TimePerStep: "400"
14.33 -0.0313655
14.505 0.0249969
14.68 0.113461
14.855 0.111165
15.03 0.0582716
15.205 -0.030427
15.38 0.0473846
15.555 -0.0119928
15.73 0.0296972
15.905 0.0562615
16.08 0.00658506
16.255 0.0437331
16.43 0.0373099
16.605 0.0269861
16.78 0.0428317
16.955 0.0266551
17.13 0.0701002
17.305 0.0277521
17.48 0.0659654
17.655 0.0269821
17.83 0.0861818
18.005 -0.0194114
18.18 0.072375
18.355 0.0571629
18.53 0.102405
18.705 0.0901757
18.88 0.0393384
19.055 0.0470875
19.23 0.0581616
19.405 0.0241437
19.58 0.0812633
19.755 0.0448798
19.93 0.0456199
20.105 0.0540409
20.28 0.080076
20.455 0.0359306
20.63 0.0536272
20.805 0.0829509
20.98 0.0679759
21.155 0.098426
21.33 0.0646635
21.505 0.00201971
21.68 0.0636785
21.855 -0.00193402
22.03 -0.00232911
22.205 0.0456501
22.38 0.0535844
22.555 0.00849734
22.73 0.0484532
22.905 0.0273405
23.08 0.0367703
23.255 0.0500299
23.43 0.00520107
23.605 0.034052
23.78 0.0663409
23.955 -0.0137088
24.13 0.00722203
24.305 0.0194713
24.48 0.0311734
24.655 0.0453524
24.83 0.0492091
25.005 0.0243478
25.18 0.0675377
25.355 0.00440193
25.53 0.0127815
25.705 -0.014087
25.88 -0.0274896
26.055 0.0595552
26.23 0.111805
26.405 0.0508952
26.58 0.0534695
26.755 0.0207071
26.93 0.00393987
27.105 0.0656196
27.28 0.074354
27.455 0.0507562
27.63 0.107619
27.805 0.0857516
27.98 0.220474
28.155 0.0158912
28.33 0.0555617
28.505 0.000718639
28.68 -0.0251184
28.855 -0.0216502
29.03 0.0434139
29.205 0.0114228
29.38 0.0377679
29.555 0.188492
29.73 0.140933
29.905 0.134877
30.08 1.52766
30.255 0.771732
30.43 0.0517709
30.605 0.0224705
30.78 0.0305388
30.955 0.0263791
31.13 0.0280553
31.305 -0.00563786
31.48 -0.000447629
31.655 0.00122022
31.83 0.0051925
32.005 0.0414682
32.18 0.130153
32.355 0.0167839
32.53 0.0316174
32.705 0.00185246
32.88 0.032477
33.055 0.00446178
33.23 -0.00342944
33.405 -0.00632193
33.58 0.00566376
33.755 -0.00204789
33.93 -0.0156752
34.105 -0.00800602
34.28 0.0424706
34.455 0.550515
34.63 0.233297
34.805 0.0370441
34.98 0.030544
35.155 0.104329
35.33 0.121264
35.505 0.0285383
35.68 0.00434337
35.855 0.00493213
36.03 0.0243069
36.205 0.056381
36.38 0.0248015
36.555 -0.0122265
36.73 0.000832179
36.905 -0.00432198
37.08 -0.0174479
37.255 0.00320192
37.43 0.0113654
37.605 0.0224102
37.78 0.00609395
37.955 0.00292308
38.13 0.00285051
38.305 0.0135096
38.48 0.0972525
38.655 0.100189
38.83 0.0130021
39.005 -0.00848627
39.18 -0.0181196
39.355 -2.20865e-05
39.53 0.00577752
39.705 0.0873927
39.88 0.886859
40.055 0.846864
40.23 0.0936933
40.405 0.0263438
40.58 -0.00743504
40.755 0.013103
40.93 0.0188019
41.105 -0.00359258
41.28 0.0113551
41.455 -0.0195019
41.63 0.00500656
41.805 0.0170345
41.98 0.0176042
42.155 0.0807478
42.33 0.163573
42.505 0.136536
42.68 0.0276091
42.855 0.00837296
43.03 -0.000951603
43.205 -0.0173503
43.38 0.00295844
43.555 0.00888984
43.73 -0.011578
43.905 0.0212515
44.08 0.0389786
44.255 -0.0160823
44.43 0.012344
44.605 0.0060777
44.78 0.00290604
44.955 0.173742
45.13 0.62207
45.305 0.245935
45.48 0.0266164
45.655 0.032053
45.83 0.113723
46.005 0.456228
46.18 1.41499
46.355 0.5719
46.53 0.123936
46.705 0.0159728
46.88 0.0149212
47.055 0.0100358
47.23 0.00986548
47.405 0.0497776
47.58 0.149151
47.755 0.0511384
47.93 0.0143602
48.105 0.0161816
48.28 0.0270885
48.455 0.0179349
48.63 0.189454
48.805 0.208488
48.98 0.0293062
49.155 -0.0128488
49.33 -0.0118797
49.505 0.00354281
49.68 -0.00697255
49.855 -0.0210508
50.03 -0.00402379
50.205 0.0179157
50.38 0.0222516
50.555 0.0745141
50.73 0.0611453
50.905 0.0105599
51.08 0.0147783
51.255 -0.0126474
51.43 -0.00253361
51.605 -0.00553995
51.78 0.00120074
51.955 -0.0186791
52.13 -0.00596345
52.305 -0.00818731
52.48 0.0208984
52.655 0.0496962
52.83 0.329412
53.005 0.426986
53.18 0.122454
53.355 0.00897646
53.53 -0.0028507
53.705 0.0102021
53.88 0.0182967
54.055 -0.00308188
54.23 -0.0125524
54.405 -0.00275599
54.58 0.000721722
54.755 0.00583686
54.93 0.0163373
55.105 0.0339459
55.28 -0.000916733
55.455 0.00185327
55.63 0.0144834
55.805 0.0345837
55.98 0.191204
56.155 0.387245
56.33 0.214069
56.505 0.0363353
56.68 -0.0115846
56.855 0.0139173
57.03 0.0182186
57.205 -0.00523737
57.38 0.0143156
57.555 -0.00705159
57.73 0.0405705
57.905 0.106786
58.08 0.0314746
58.255 0.0278303
58.43 0.0174538
58.605 0.013253
58.78 0.0432959
58.955 0.0842602
59.13 0.0254785
59.305 -0.00337835
59.48 0.00549369
59.655 0.0128183
59.83 -9.58826e-05
60.005 0.0157563
60.18 0.0173607
60.355 -0.0111441
60.53 -0.020289
60.705 0.0176743
60.88 0.00834576
61.055 0.00783176
61.23 0.0383686
61.405 0.198783
61.58 0.376814
61.755 0.218065
61.93 0.0319868
62.105 -0.00925455
62.28 -0.000284834
62.455 0.0237948
62.63 0.200112
62.805 0.186194
62.98 0.101785
63.155 -0.0108451
63.33 -0.0140603
63.505 -0.000795351
63.68 0.000457086
63.855 0.0047466
64.03 0.00986715
64.205 -0.000779683
64.38 0.0304404
64.555 0.0218005
64.73 -0.00056853
64.905 -0.00804942
65.08 -0.00225827
65.255 0.00156545
65.43 -0.00414709
65.605 -0.00984455
65.63 -0.0211232