File: data/xrd/xy/2019-05-30T15_13_14.483373+00_00_LBL_C6.xy
'Id: "" Comment: "Integrate frame EtNH3I_iPropyl_05_003.gfrmwith cursor Wedge Cursor #4" Operator: "UC Berkeley" Anode: "Co" Scantype: "TwoTheta" TimePerStep: "300"
15.055 -0.0363643
15.22 0.0167048
15.385 0.0586574
15.55 0.0325645
15.715 0.0494248
15.88 -0.0348068
16.045 0.0258709
16.21 0.0329334
16.375 0.030554
16.54 0.0243061
16.705 0.00220268
16.87 0.0144374
17.035 0.0333179
17.2 0.0854735
17.365 -0.00211386
17.53 0.0593443
17.695 0.0254657
17.86 0.0314982
18.025 0.0425474
18.19 0.0578796
18.355 0.0432875
18.52 0.042958
18.685 0.119396
18.85 0.168462
19.015 0.0908963
19.18 0.0193705
19.345 0.0790119
19.51 0.0206162
19.675 0.0395817
19.84 0.00954274
20.005 0.0448115
20.17 0.0919553
20.335 0.0257018
20.5 0.018751
20.665 0.0652694
20.83 0.0327284
20.995 0.0466563
21.16 0.0333679
21.325 0.0127326
21.49 0.0608034
21.655 0.0621794
21.82 0.0611164
21.985 0.0917217
22.15 0.0310916
22.315 0.0436956
22.48 -0.000939906
22.645 0.0658603
22.81 -0.00797457
22.975 0.0298981
23.14 0.0418326
23.305 0.00118818
23.47 0.00359425
23.635 0.0590909
23.8 0.0923809
23.965 0.036664
24.13 0.0140996
24.295 0.0386947
24.46 0.0165961
24.625 0.00176521
24.79 0.0259802
24.955 0.0280547
25.12 0.0336618
25.285 0.0837808
25.45 0.0487849
25.615 0.0575749
25.78 0.0489678
25.945 0.0635147
26.11 -0.0123068
26.275 0.00918212
26.44 0.0495377
26.605 0.0528441
26.77 0.0239141
26.935 0.0316934
27.1 0.046332
27.265 0.0164885
27.43 0.0747036
27.595 0.072157
27.76 0.141196
27.925 0.218627
28.09 0.127813
28.255 0.245855
28.42 0.371181
28.585 0.121316
28.75 0.0535181
28.915 0.100615
29.08 0.202039
29.245 0.115767
29.41 0.10162
29.575 0.072841
29.74 0.00953581
29.905 -0.015808
30.07 -0.0081698
30.235 -0.029413
30.4 0.00378703
30.565 -0.00289043
30.73 0.0199011
30.895 0.0569422
31.06 0.0127128
31.225 0.0123419
31.39 -0.000573457
31.555 -0.0112807
31.72 -0.0047751
31.885 -0.0310024
32.05 0.0269313
32.215 0.0840005
32.38 0.198428
32.545 0.187136
32.71 0.0395697
32.875 0.00703809
33.04 -0.0028964
33.205 -0.0212079
33.37 0.00215069
33.535 0.0108426
33.7 0.0276338
33.865 0.0255196
34.03 0.0169527
34.195 0.0912137
34.36 0.0848458
34.525 0.0738292
34.69 0.0265618
34.855 0.0299089
35.02 0.0361574
35.185 0.0276932
35.35 -0.00148411
35.515 0.00591105
35.68 0.0282077
35.845 0.0147129
36.01 0.00116829
36.175 0.0136298
36.34 0.00793611
36.505 0.00869954
36.67 0.0142985
36.835 -0.00290498
37 0.0362217
37.165 0.0185851
37.33 0.00952144
37.495 -0.000980233
37.66 0.000567017
37.825 -0.0112932
37.99 0.00345458
38.155 0.0548786
38.32 -0.0136649
38.485 -0.0116038
38.65 -0.00723009
38.815 0.0615258
38.98 0.118798
39.145 0.0827307
39.31 0.0283927
39.475 0.0129511
39.64 0.00337703
39.805 -0.013422
39.97 -0.0184228
40.135 -0.0016858
40.3 -0.017262
40.465 0.00748191
40.63 0.0113548
40.795 -0.00170231
40.96 0.0125354
41.125 0.0040515
41.29 0.0175318
41.455 0.0137899
41.62 0.00923147
41.785 -0.013312
41.95 0.0144722
42.115 0.0371492
42.28 -0.0172938
42.445 0.0055222
42.61 0.0185017
42.775 0.00230148
42.94 0.0196649
43.105 0.0337997
43.27 0.00732844
43.435 0.0261574
43.6 0.0501091
43.765 0.0681959
43.93 0.0757897
44.095 0.0329716
44.26 0.032745
44.425 0.0418344
44.59 0.0255755
44.755 0.0347499
44.92 0.0167584
45.085 0.00494158
45.25 0.0127731
45.415 -0.0172052
45.58 0.0247852
45.745 0.0170683
45.91 0.0357499
46.075 0.281035
46.24 0.277449
46.405 0.0859438
46.57 0.0325825
46.735 0.103356
46.9 0.0920593
47.065 0.251114
47.23 0.240791
47.395 0.141993
47.56 0.0359609
47.725 0.0660637
47.89 0.052206
48.055 0.0757395
48.22 0.209211
48.385 0.0777247
48.55 0.038216
48.715 0.0170759
48.88 -0.00143777
49.045 -0.0103081
49.21 0.00712582
49.375 0.00714984
49.54 -0.0118173
49.705 -0.00148242
49.87 -0.0151331
50.035 -0.00849786
50.2 0.0100054
50.365 -0.024552
50.53 -0.00202147
50.695 -0.015976
50.86 0.0256574
51.025 -0.0158188
51.19 0.00694609
51.355 -0.0297272
51.52 -0.0149842
51.685 -0.00976853
51.85 -0.0182594
52.015 0.00333669
52.18 0.0117834
52.345 -0.00209532
52.51 0.00143956
52.675 0.0124078
52.84 0.0225933
53.005 0.00822817
53.17 0.00324133
53.335 0.0334241
53.5 0.00720241
53.665 -0.0125073
53.83 0.00775478
53.995 0.0204875
54.16 -0.00976242
54.325 0.00623846
54.49 0.0241283
54.655 0.0433281
54.82 0.0527416
54.985 0.0280278
55.15 0.00941183
55.315 0.014435
55.48 0.0199842
55.645 0.00603983
55.81 0.0190588
55.975 -0.00729475
56.14 -0.0127229
56.305 0.0164886
56.47 -0.00850438
56.635 -0.00345878
56.8 0.0130998
56.965 -0.0224717
57.13 -0.013202
57.295 -9.9932e-07
57.46 0.00781221
57.625 0.0152642
57.79 0.00992737
57.955 -0.0065183
58.12 0.0312745
58.285 0.0226412
58.45 0.0134728
58.615 0.0950345
58.78 0.113358
58.945 0.0481339
59.11 0.0388163
59.275 0.0302215
59.44 0.00334761
59.605 -0.00622763
59.77 0.00784839
59.935 0.00589717
60.1 -0.000946361
60.265 0.0102617
60.43 -0.0126828
60.595 -0.00108731
60.76 0.00819006
60.925 0.0151556
61.09 -0.000152628
61.255 0.0237067
61.42 0.0108461
61.585 0.00249203
61.75 0.0136982
61.915 0.00928135
62.08 0.0101067
62.245 0.00551387
62.41 -0.0123928
62.575 0.00578757
62.74 0.0242306
62.905 -0.019415
63.07 0.0242348
63.235 0.00334121
63.4 0.00962933
63.565 -0.0164432
63.73 -0.00184252
63.78 -0.0266271