File: data/xrd/xy/2019-02-21T16_54_38.714239+00_00_LBL.xy
'Id: "" Comment: "Integrate frame iprodim_02_001.gfrmwith cursor Wedge Cursor #2" Operator: "UC Berkeley" Anode: "Co" Scantype: "TwoTheta" TimePerStep: "300"
14.485 -0.0391856
14.665 0.0649274
14.845 0.111748
15.025 0.0844469
15.205 0.0269354
15.385 0.0143037
15.565 0.0698729
15.745 0.0559447
15.925 0.0671226
16.105 0.0541352
16.285 0.07598
16.465 0.0442459
16.645 0.0505091
16.825 0.0315522
17.005 0.0110017
17.185 0.0568769
17.365 0.0258665
17.545 0.0356881
17.725 0.0730593
17.905 0.0737145
18.085 0.0592359
18.265 0.0574692
18.445 0.200538
18.625 0.073535
18.805 0.0272636
18.985 0.0607829
19.165 0.0619452
19.345 0.0225038
19.525 0.00844525
19.705 0.0554605
19.885 0.0701185
20.065 0.0471896
20.245 0.0453597
20.425 0.0710084
20.605 0.0482689
20.785 0.0519793
20.965 0.043077
21.145 0.0632106
21.325 0.0136481
21.505 -0.0034589
21.685 -0.0115529
21.865 0.0081318
22.045 0.0114259
22.225 0.0492564
22.405 0.056499
22.585 0.0201092
22.765 0.0603032
22.945 0.00607203
23.125 0.0579703
23.305 0.00737406
23.485 0.0312783
23.665 0.0504927
23.845 0.000194638
24.025 0.034309
24.205 0.048309
24.385 0.00980042
24.565 0.0256837
24.745 -0.00359619
24.925 0.0478432
25.105 0.0416177
25.285 0.0962647
25.465 0.0302117
25.645 0.0137757
25.825 0.0110554
26.005 0.0557217
26.185 0.051418
26.365 0.057165
26.545 -0.005688
26.725 0.00203455
26.905 0.0233735
27.085 0.0384697
27.265 0.0411427
27.445 0.0520706
27.625 0.031818
27.805 -0.0101815
27.985 0.0261411
28.165 0.0502727
28.345 0.0287422
28.525 0.0554721
28.705 0.112813
28.885 0.0870384
29.065 0.0234363
29.245 0.0515714
29.425 0.0389729
29.605 0.0295147
29.785 0.0523838
29.965 0.265127
30.145 3.56201
30.325 0.384621
30.505 0.0654879
30.685 0.0144924
30.865 0.0261642
31.045 -0.00535308
31.225 -0.00107084
31.405 0.0112955
31.585 0.0164472
31.765 -0.004105
31.945 0.0140973
32.125 0.00602408
32.305 -0.00321294
32.485 0.0119638
32.665 -0.0107325
32.845 0.00440834
33.025 -0.00297576
33.205 -0.0204699
33.385 -0.0121373
33.565 0.00902173
33.745 -0.0139114
33.925 0.00342681
34.105 0.00326063
34.285 -0.0140759
34.465 0.0274504
34.645 0.0695058
34.825 0.601273
35.005 0.211763
35.185 -0.00504463
35.365 0.0122145
35.545 0.00472131
35.725 -0.00785123
35.905 -0.00025516
36.085 0.0376995
36.265 0.441333
36.445 0.150003
36.625 -0.0127954
36.805 0.0163334
36.985 0.0291156
37.165 0.0232007
37.345 0.198435
37.525 1.2378
37.705 0.425082
37.885 0.00650912
38.065 0.00496486
38.245 0.00762294
38.425 0.0343824
38.605 0.11005
38.785 0.023141
38.965 -0.00347937
39.145 0.00869541
39.325 0.034713
39.505 0.0175595
39.685 0.00153536
39.865 -0.01323
40.045 0.00842921
40.225 -0.0084608
40.405 0.0127311
40.585 0.0094095
40.765 0.0203495
40.945 0.0169376
41.125 0.0248644
41.305 0.0686125
41.485 0.0861333
41.665 0.0188899
41.845 -0.0056693
42.025 -0.0067727
42.205 -0.00653215
42.385 0.00112876
42.565 0.0230822
42.745 -0.00824715
42.925 -0.00430531
43.105 -0.00855272
43.285 0.00267844
43.465 0.0255022
43.645 0.0203233
43.825 0.0303581
44.005 0.0849274
44.185 0.0106232
44.365 0.0182695
44.545 0.0682366
44.725 0.342169
44.905 0.134304
45.085 0.0652937
45.265 0.0386104
45.445 0.030472
45.625 0.00663231
45.805 0.0105658
45.985 0.0153797
46.165 -0.00776812
46.345 0.00735115
46.525 0.0129159
46.705 -0.0163203
46.885 -0.0109201
47.065 0.012032
47.245 0.00613721
47.425 0.0203401
47.605 0.0971045
47.785 0.180341
47.965 0.556004
48.145 0.877796
48.325 0.534284
48.505 0.0536675
48.685 0.026143
48.865 0.143457
49.045 0.285215
49.225 0.0938424
49.405 0.0382793
49.585 0.000535205
49.765 -0.005878
49.945 0.0172645
50.125 0.10943
50.305 0.355948
50.485 0.144279
50.665 -0.00325313
50.845 -0.015568
51.025 -0.0040262
51.205 6.77718e-05
51.385 -0.00316926
51.565 -0.00319368
51.745 -0.00542953
51.925 0.0157109
52.105 0.0632976
52.285 0.013925
52.465 -0.0061434
52.645 -0.00256169
52.825 -0.00444125
53.005 0.00161953
53.185 0.00318858
53.365 -0.00401609
53.545 0.00400936
53.725 0.076306
53.905 0.0733828
54.085 0.0251542
54.265 0.00159859
54.445 0.0014808
54.625 -0.0119154
54.805 0.00446482
54.985 -0.00140236
55.165 0.00619661
55.345 0.0406536
55.525 0.000123128
55.705 -0.0108819
55.885 0.00685335
56.065 0.0174447
56.245 0.0059165
56.425 -0.000826799
56.605 0.00112865
56.785 0.0130345
56.965 0.0333043
57.145 0.0546277
57.325 0.0610387
57.505 0.0330862
57.685 0.092019
57.865 0.199555
58.045 0.234211
58.225 0.052688
58.405 0.0182697
58.585 0.0230279
58.765 0.00180501
58.945 0.000596896
59.125 0.0104953
59.305 0.000165176
59.485 -0.00496252
59.665 0.000858006
59.845 0.00882327
60.025 -0.00737701
60.205 0.00301514
60.385 0.0143939
60.565 -0.00182323
60.745 -0.00624506
60.925 0.00901119
61.105 0.0277877
61.285 -0.00887138
61.465 0.00738402
61.645 0.0370915
61.825 0.0846651
62.005 0.197842
62.185 0.35602
62.365 0.126906
62.545 0.317095
62.725 0.128949
62.905 0.0613513
63.085 0.0186848
63.265 0.0116289
63.445 0.00283669
63.625 0.0133341
63.805 -0.00229932
63.985 0.00667927
64.165 0.0049327
64.345 0.0134524
64.525 0.00565117
64.705 0.0330462
64.885 0.0577117
65.065 0.129873
65.245 0.0561978
65.425 0.0196377
65.605 0.0105724
65.785 -0.0030996
65.965 0.0146562
66.145 -0.0102301
66.325 0.00501834
66.505 0.0138955
66.685 0.0102322
66.865 0.0104529
67.045 0.0030096
67.205 -0.0190869