File: data/xrd/xy/2019-05-30T15_13_14.483373+00_00_LBL_G9.xy
'Id: "" Comment: "Integrate frame EtNH3I_iPropyl_06_002.gfrmwith cursor Wedge Cursor #7" Operator: "UC Berkeley" Anode: "Co" Scantype: "TwoTheta" TimePerStep: "300"
14.875 -0.0372741
15.05 -0.0355284
15.225 0.0282801
15.4 0.0399367
15.575 0.0615588
15.75 0.0220354
15.925 0.0265371
16.1 0.0796624
16.275 -0.0165635
16.45 0.0408191
16.625 0.0566219
16.8 0.0052079
16.975 0.0253133
17.15 0.0688178
17.325 0.0243702
17.5 -0.00893557
17.675 0.0153477
17.85 0.0469508
18.025 -0.0103054
18.2 0.0461343
18.375 0.00958335
18.55 0.0559437
18.725 0.0257326
18.9 0.0504238
19.075 -0.00662082
19.25 0.0246583
19.425 0.022992
19.6 0.00560972
19.775 0.0699023
19.95 0.0109163
20.125 0.024543
20.3 0.0432833
20.475 0.050502
20.65 -0.00692439
20.825 0.0602101
21 -0.0053339
21.175 0.0349946
21.35 0.024733
21.525 0.0601766
21.7 0.0232638
21.875 0.0481462
22.05 -0.0164511
22.225 0.00981007
22.4 -0.00393484
22.575 0.0303029
22.75 0.0479891
22.925 0.0567079
23.1 0.0180122
23.275 0.0428675
23.45 0.0254244
23.625 0.0355391
23.8 -0.00990802
23.975 -0.0285601
24.15 0.0119164
24.325 0.0346739
24.5 -0.00575919
24.675 0.0559908
24.85 -0.0209895
25.025 0.0583091
25.2 0.124812
25.375 0.106753
25.55 0.0831355
25.725 0.0291748
25.9 -0.0172055
26.075 0.0124972
26.25 -0.0165073
26.425 0.0521824
26.6 -0.0136136
26.775 0.0365003
26.95 0.00981628
27.125 0.0433972
27.3 0.0301624
27.475 0.0431572
27.65 -0.00928918
27.825 0.0694909
28 0.0586406
28.175 0.0528668
28.35 0.0631539
28.525 -0.00870061
28.7 0.0566899
28.875 0.0613406
29.05 0.0940809
29.225 0.0378741
29.4 0.0404625
29.575 0.03789
29.75 -0.00742765
29.925 0.042246
30.1 0.00475571
30.275 0.0157328
30.45 0.0841463
30.625 0.133048
30.8 0.303717
30.975 0.382581
31.15 0.290979
31.325 0.124096
31.5 0.0675664
31.675 0.00270092
31.85 -0.00970747
32.025 -0.00910441
32.2 0.00558179
32.375 0.0109229
32.55 0.019971
32.725 0.0556338
32.9 -0.00177339
33.075 -0.00154429
33.25 0.00217458
33.425 -0.0171626
33.6 0.0220426
33.775 0.0161441
33.95 0.00527886
34.125 -0.0244261
34.3 -0.00331415
34.475 0.0220358
34.65 0.0291434
34.825 0.0309278
35 0.0365409
35.175 0.034708
35.35 0.0211891
35.525 0.0650756
35.7 0.12097
35.875 0.109255
36.05 0.0747466
36.225 -0.00952249
36.4 -0.00716553
36.575 0.00979135
36.75 0.00491427
36.925 0.0108804
37.1 0.00517223
37.275 0.00105251
37.45 0.0169579
37.625 0.0254869
37.8 0.0226597
37.975 0.00322604
38.15 -0.0124514
38.325 -0.0278895
38.5 0.00464521
38.675 0.0266426
38.85 -0.008889
39.025 0.00484882
39.2 -0.00960257
39.375 -0.00891914
39.55 -0.0295418
39.725 0.0106942
39.9 -0.0143596
40.075 -0.00473466
40.25 0.0181358
40.425 0.0346835
40.6 0.0318253
40.775 -0.0056525
40.95 0.00443816
41.125 -0.00284208
41.3 -0.0118504
41.475 -0.00138996
41.65 0.0114043
41.825 -0.00387309
42 -0.0182667
42.175 0.00404547
42.35 -0.00524003
42.525 0.0134204
42.7 0.0143337
42.875 -0.00564218
43.05 -0.00152638
43.225 0.0497944
43.4 0.146326
43.575 0.272028
43.75 0.177189
43.925 0.0610287
44.1 0.0280867
44.275 0.0343284
44.45 0.026101
44.625 0.0254368
44.8 0.0355811
44.975 0.0205344
45.15 0.0121454
45.325 -0.00636011
45.5 0.00167641
45.675 0.00788035
45.85 0.00261683
46.025 0.0386006
46.2 0.0433785
46.375 0.0353811
46.55 0.0122612
46.725 0.00188816
46.9 0.0175284
47.075 0.0385223
47.25 0.045804
47.425 0.0524632
47.6 0.0658357
47.775 0.056591
47.95 0.0674679
48.125 0.0543268
48.3 0.0380165
48.475 0.0159664
48.65 0.013159
48.825 0.00610787
49 0.0143975
49.175 -0.00210574
49.35 -0.00747051
49.525 0.000663296
49.7 0.0129063
49.875 0.000495092
50.05 -0.0119193
50.225 0.00380666
50.4 -0.0130827
50.575 0.00541053
50.75 0.0221675
50.925 0.0304746
51.1 0.0710728
51.275 0.0466197
51.45 0.033286
51.625 -0.0175493
51.8 -0.0149628
51.975 0.00513414
52.15 -0.0181952
52.325 0.0169835
52.5 -0.00414728
52.675 0.00383853
52.85 0.0137301
53.025 -0.0114423
53.2 0.00213707
53.375 -0.0184148
53.55 -0.000918665
53.725 -0.0125598
53.9 0.00160144
54.075 -0.00779077
54.25 -0.00766141
54.425 0.00014953
54.6 0.0058793
54.775 0.0170977
54.95 0.00952849
55.125 0.0104071
55.3 -0.0186846
55.475 -0.00192567
55.65 0.00298381
55.825 -0.0020726
56 -0.000814923
56.175 -0.0116695
56.35 0.0131997
56.525 7.37712e-05
56.7 -0.00892852
56.875 -0.0122198
57.05 -0.000223088
57.225 0.0219188
57.4 0.0213411
57.575 0.051452
57.75 0.0449272
57.925 0.0198226
58.1 0.00308492
58.275 0.00408632
58.45 -0.0150525
58.625 0.00446041
58.8 0.00317547
58.975 0.00808754
59.15 -0.00277909
59.325 -0.0110606
59.5 0.00228537
59.675 0.0292671
59.85 -0.00429195
60.025 -0.00677313
60.2 -0.017821
60.375 0.00688136
60.55 -0.000562704
60.725 -0.000976469
60.9 0.00587156
61.075 -0.0017782
61.25 0.0161845
61.425 -0.00823062
61.6 0.0138325
61.775 0.00313438
61.95 -0.018762
62.125 -0.00556709
62.3 -0.00691116
62.475 -0.00564765
62.65 -0.00365576
62.825 0.00494772
63 0.0173865
63.175 -0.00258216
63.35 0.0167013
63.525 0.00980212
63.7 0.0246653
63.875 0.00392166
64.05 0.0231818
64.225 0.00745705
64.4 -0.000129102
64.575 0.00239503
64.75 0.0283758
64.925 0.011823
65.1 0.0103548
65.275 -0.0011808
65.45 -0.0110161
65.625 -0.0140316
65.8 0.000633101
65.975 -0.0182668
65.98 -0.0220751