File: data/xrd/xy/2019-05-23TO2_12_25.720560+00_00_LBL_G1.xy
'Id: "" Comment: "Integrate frame 06062019_neo_Pentyl_04_002.gfrmwith cursor Wedge Cursor #1" Operator: "UC Berkeley" Anode: "Co" Scantype: "TwoTheta" TimePerStep: "600"
14.125 -0.0254035
14.305 -0.00439893
14.485 -2.24838e-05
14.665 0.0580588
14.845 0.0905896
15.025 0.0530074
15.205 0.031576
15.385 0.00918318
15.565 0.0461271
15.745 0.0167371
15.925 0.0456781
16.105 0.0210871
16.285 -0.0047535
16.465 0.0239182
16.645 0.0479033
16.825 0.0332125
17.005 0.0169028
17.185 0.0181506
17.365 0.0325413
17.545 0.0166111
17.725 0.00525725
17.905 0.0315649
18.085 0.0250726
18.265 0.0120063
18.445 0.0148728
18.625 0.0214443
18.805 -0.0160073
18.985 0.00105598
19.165 0.0148714
19.345 0.0491056
19.525 0.0138603
19.705 0.00971461
19.885 -0.00956034
20.065 0.00813854
20.245 0.00209089
20.425 0.00228706
20.605 -0.0189614
20.785 -0.000586127
20.965 0.0318015
21.145 0.0317143
21.325 0.0266601
21.505 0.0102229
21.685 0.0277079
21.865 0.00187566
22.045 0.0385888
22.225 0.0329702
22.405 0.0206682
22.585 0.0274247
22.765 0.0476149
22.945 0.0154599
23.125 0.0144016
23.305 0.02413
23.485 0.0128597
23.665 0.0316414
23.845 0.0115731
24.025 0.0247124
24.205 0.0160042
24.385 0.0242713
24.565 0.018522
24.745 0.0383179
24.925 0.0378282
25.105 0.0106037
25.285 0.0261399
25.465 0.0155111
25.645 0.00798548
25.825 0.0105843
26.005 0.0220346
26.185 0.0797272
26.365 0.0377095
26.545 0.0178841
26.725 6.77582e-05
26.905 0.0294941
27.085 0.00611299
27.265 0.0606858
27.445 0.0545882
27.625 0.0243958
27.805 0.025855
27.985 0.0200935
28.165 -0.000659246
28.345 -0.0131215
28.525 -0.000685315
28.705 -0.00231946
28.885 0.00685741
29.065 -0.00157949
29.245 0.0272152
29.425 0.0252957
29.605 0.0894852
29.785 0.200545
29.965 0.180963
30.145 1.51496
30.325 1.88408
30.505 0.18309
30.685 0.0688433
30.865 0.010228
31.045 0.0223826
31.225 0.00371786
31.405 -0.0013757
31.585 0.0152085
31.765 0.000765777
31.945 0.0177577
32.125 0.0286575
32.305 0.0202944
32.485 -0.0032809
32.665 0.0175145
32.845 -0.00280406
33.025 0.0348428
33.205 0.0261054
33.385 0.00353821
33.565 0.0332971
33.745 0.00143853
33.925 0.0144094
34.105 0.00135313
34.285 0.0195016
34.465 0.100383
34.645 0.170651
34.825 0.0402595
35.005 0.0171267
35.185 0.0148789
35.365 -0.00183346
35.545 0.00808375
35.725 0.0103259
35.905 0.0189682
36.085 0.0210371
36.265 0.039272
36.445 0.0156784
36.625 -0.00300258
36.805 -0.0227979
36.985 -0.00964011
37.165 -0.0133436
37.345 0.0143968
37.525 -0.0075663
37.705 -0.00689262
37.885 -0.0105358
38.065 -0.00836879
38.245 0.00536892
38.425 -0.0126372
38.605 -0.00800669
38.785 0.00138958
38.965 -0.00741533
39.145 -0.0058667
39.325 0.00744652
39.505 0.0157086
39.685 0.0832619
39.865 0.464881
40.045 2.46814
40.225 1.20272
40.405 0.159919
40.585 0.0424332
40.765 0.00757078
40.945 0.00486932
41.125 -0.0104504
41.305 -0.00213985
41.485 -0.0109143
41.665 -0.00428128
41.845 -0.0211894
42.025 0.00452638
42.205 -0.0170774
42.385 0.0144856
42.565 0.0019249
42.745 -0.0180325
42.925 0.00700615
43.105 0.00922712
43.285 0.00901706
43.465 -0.0122786
43.645 0.0151862
43.825 0.0171783
44.005 0.0203344
44.185 0.03253
44.365 0.0301779
44.545 0.0276428
44.725 0.0420975
44.905 0.07579
45.085 0.613315
45.265 1.8416
45.445 0.409007
45.625 0.0730747
45.805 0.0604808
45.985 0.112749
46.165 0.672649
46.345 1.65403
46.525 0.287582
46.705 0.0496508
46.885 0.00168208
47.065 0.00182957
47.245 0.00247009
47.425 0.00568337
47.605 0.00288126
47.785 -0.00692432
47.965 -0.0128499
48.145 -0.0146519
48.325 0.00566972
48.505 0.00549013
48.685 0.133545
48.865 0.424067
49.045 0.113668
49.225 -0.00463442
49.405 -0.00352435
49.585 -0.0197107
49.765 -0.016054
49.945 -0.00787022
50.125 -0.00355298
50.305 -0.0123504
50.485 -0.0116154
50.665 -0.00878846
50.845 -0.00588442
51.025 -0.0074198
51.205 -0.00425924
51.385 -0.0146133
51.565 -0.0127608
51.745 -0.00397192
51.925 -0.019009
52.105 -0.014378
52.285 -0.0117906
52.465 -0.00608449
52.645 0.0351741
52.825 0.14891
53.005 0.671437
53.185 0.634528
53.365 0.115477
53.545 0.03005
53.725 -0.000134678
53.905 -0.00238702
54.085 0.00299854
54.265 0.000717222
54.445 -0.0111942
54.625 0.00736122
54.805 -0.00590224
54.985 -0.000155025
55.165 0.0028607
55.345 -0.00345799
55.525 -0.0079335
55.705 -0.000390067
55.885 0.0381048
56.065 0.127077
56.245 0.53823
56.425 0.35332
56.605 0.0568661
56.785 0.00320178
56.965 0.0115611
57.145 -0.00696678
57.325 -0.00338808
57.505 0.00102164
57.685 -0.0136477
57.865 -0.00842991
58.045 0.0135533
58.225 0.00874706
58.405 0.00987949
58.585 0.00494919
58.765 0.000126007
58.945 0.0277934
59.125 0.0459358
59.305 0.0258152
59.485 -0.0105276
59.665 0.000478331
59.845 0.000106197
60.025 0.0157775
60.205 0.0066823
60.385 0.00333481
60.565 -0.00533894
60.745 -0.00182349
60.925 0.00913265
61.105 0.00482666
61.285 0.0180476
61.465 0.22852
61.645 0.939723
61.825 0.640089
62.005 0.115651
62.185 0.0308327
62.365 -0.00325268
62.545 0.0353245
62.725 0.287307
62.905 0.466726
63.085 0.156454
63.265 0.011343
63.445 -0.00118423
63.625 -0.000676889
63.805 -0.000754325
63.985 0.00846586
64.165 -0.00437951
64.345 -0.00804626
64.525 -0.0105907
64.705 0.000295164
64.885 0.000991953
65.065 0.00409352
65.245 0.00591069
65.425 -0.00369893
65.605 0.00111929
65.785 0.00704032
65.965 0.00988034
66.145 0.0124952
66.325 0.0405626
66.505 0.189649
66.685 0.56989
66.865 0.423903
67.045 0.144071
67.225 0.0211303
67.405 0.0034199
67.585 0.00870566
67.765 0.00749127
67.945 -0.0168892