File: data/xrd/xy/2019-09-05T19_43_09.232228+00_00_LBL_G5.xy
'Id: "" Comment: "Integrate frame Morph_01_001.gfrmwith cursor Wedge Cursor #1" Operator: "UC Berkeley" Anode: "Co" Scantype: "TwoTheta" TimePerStep: "500"
13.28 -0.0440599
13.485 1.21424
13.69 0.394367
13.895 0.0308616
14.1 0.0110663
14.305 0.0496037
14.51 -0.0081777
14.715 -0.00575208
14.92 0.0804692
15.125 0.0180028
15.33 0.0143747
15.535 0.131553
15.74 0.0622649
15.945 -0.0106007
16.15 0.0511355
16.355 0.0384623
16.56 0.0637517
16.765 0.0302486
16.97 0.0475181
17.175 0.0546124
17.38 0.0474504
17.585 0.0216323
17.79 3.04058e-05
17.995 0.0236477
18.2 0.0546645
18.405 0.0535306
18.61 0.093227
18.815 0.0710572
19.02 0.0890698
19.225 0.0742878
19.43 0.05558
19.635 0.0142712
19.84 -0.00823703
20.045 0.0635696
20.25 0.0900925
20.455 0.0733222
20.66 0.0809509
20.865 0.0717074
21.07 0.0536682
21.275 0.113719
21.48 0.0118739
21.685 0.0702715
21.89 0.0743977
22.095 0.114415
22.3 0.0243525
22.505 0.062515
22.71 0.0703674
22.915 0.0335045
23.12 0.0534157
23.325 0.0461731
23.53 0.123836
23.735 0.050946
23.94 0.0031306
24.145 0.114863
24.35 0.024477
24.555 0.050225
24.76 -0.00239196
24.965 0.0396689
25.17 0.0203315
25.375 0.000140997
25.58 0.0720452
25.785 0.0379507
25.99 0.113612
26.195 0.0516082
26.4 0.0391031
26.605 0.0782709
26.81 0.0577866
27.015 0.0428592
27.22 0.116864
27.425 0.0729125
27.63 0.0351054
27.835 -0.0181444
28.04 0.0659852
28.245 0.00101317
28.45 0.00740268
28.655 0.0648056
28.86 0.287702
29.065 -0.0106831
29.27 0.0370962
29.475 0.0220171
29.68 0.0198195
29.885 0.0611415
30.09 0.250047
30.295 0.0378553
30.5 0.0255865
30.705 0.022882
30.91 0.0322629
31.115 0.0135981
31.32 0.0317665
31.525 0.0288823
31.73 0.060858
31.935 -0.0038685
32.14 0.0665041
32.345 0.0340735
32.55 -0.012051
32.755 0.00652653
32.96 0.0139552
33.165 0.0471326
33.37 0.0469053
33.575 0.0473494
33.78 0.0546489
33.985 0.0596626
34.19 0.0265627
34.395 0.0801972
34.6 0.0648511
34.805 0.124381
35.01 0.0245948
35.215 0.0225842
35.42 0.0463944
35.625 0.0281468
35.83 -0.013618
36.035 0.075141
36.24 0.515574
36.445 0.150985
36.65 -0.0178028
36.855 0.0136246
37.06 0.0302951
37.265 0.120695
37.47 0.144894
37.675 0.0352718
37.88 0.0227479
38.085 0.0120466
38.29 0.0184719
38.495 0.0333732
38.7 0.0328959
38.905 0.0314444
39.11 0.0176285
39.315 0.0352891
39.52 -0.0149716
39.725 0.0205061
39.93 0.0401661
40.135 0.0188685
40.34 0.0172259
40.545 0.00853774
40.75 0.0252854
40.955 0.0262172
41.16 0.0832116
41.365 0.427766
41.57 0.0854072
41.775 -0.00112572
41.98 0.0212966
42.185 0.0409249
42.39 -0.00629528
42.595 0.0296226
42.8 0.0483519
43.005 -0.010068
43.21 -0.0115978
43.415 0.0179796
43.62 0.0293941
43.825 0.0146449
44.03 0.0206981
44.235 0.0467399
44.44 0.0300233
44.645 0.0949957
44.85 0.0392562
45.055 0.0287452
45.26 0.0500128
45.465 0.00786624
45.67 -0.0146486
45.875 0.0238083
46.08 0.0235384
46.285 0.00760209
46.49 0.0100843
46.695 0.0158063
46.9 0.0225972
47.105 0.0129647
47.31 0.0334521
47.515 0.0153888
47.72 0.0483975
47.925 0.342829
48.13 1.82684
48.335 0.237627
48.54 0.0199318
48.745 0.0106922
48.95 0.0375076
49.155 0.0432002
49.36 0.00441978
49.565 0.00378318
49.77 0.0543115
49.975 0.233075
50.18 1.11418
50.385 0.473391
50.59 0.0465791
50.795 0.00575867
51 0.0395259
51.205 0.00703551
51.41 0.0103859
51.615 0.0413349
51.82 0.102002
52.025 0.131243
52.23 0.0215331
52.435 0.00911595
52.64 0.00909225
52.845 0.0409969
53.05 0.0382583
53.255 0.00924716
53.46 0.0233607
53.665 0.0265831
53.87 0.0481567
54.075 0.02054
54.28 0.0263713
54.485 -0.0108454
54.69 0.0211391
54.895 -0.0076072
55.1 -0.00420722
55.305 0.00286335
55.51 -0.00106466
55.715 -0.00906926
55.92 0.0117569
56.125 0.0415332
56.33 0.0341378
56.535 0.00829574
56.74 0.035944
56.945 0.0641761
57.15 0.0242652
57.355 0.00873148
57.56 0.0541065
57.765 0.130872
57.97 0.0953692
58.175 0.0261179
58.38 0.0112464
58.585 0.0435568
58.79 0.0319297
58.995 0.0447736
59.2 0.0220432
59.405 0.0167595
59.61 0.010346
59.815 0.00800171
60.02 0.00479389
60.225 0.0328855
60.43 0.0314874
60.635 0.0266576
60.84 -0.00326481
61.045 0.0504587
61.25 0.0373658
61.455 0.138053
61.66 0.358086
61.865 0.186699
62.07 0.068401
62.275 0.159441
62.48 0.123665
62.685 0.0619229
62.89 0.0279104
63.095 -0.0179525
63.3 0.0197711
63.505 0.0262339
63.71 0.0115785
63.915 0.0157166
64.12 0.0128616
64.325 0.015035
64.53 0.013763
64.735 0.0394773
64.94 0.044831
65.145 0.0302869
65.35 0.0129871
65.555 0.00232409
65.76 0.0149344
65.965 0.0236581
66.17 0.0210202
66.375 0.0163271
66.58 0.0399888
66.785 0.0254517
66.99 0.0240143
67.195 0.00235928
67.4 0.0263995
67.605 0.0340321
67.81 0.0238359
68.015 0.0412626
68.22 0.00467189
68.425 0.0101988
68.63 0.0250718
68.835 -0.00223991
69.04 0.0113005
69.245 0.00145034
69.45 -0.0106195
69.655 0.00670349
69.86 0.00326837
70.065 0.0395811
70.27 0.0163917
70.475 0.0154996
70.68 0.0293718
70.885 0.0481207
71.09 0.132821
71.295 0.249721
71.5 0.0462749
71.705 0.0285355
71.91 0.0146681
72.115 0.033523
72.32 0.0310675
72.525 0.0131631
72.73 0.0140242
72.935 0.0218276
73.14 0.0196441
73.345 0.0255408
73.55 0.0242993
73.755 0.0374726
73.96 0.0174032
74.165 0.0234024
74.37 -0.00612254
74.43 -0.015547