File: data/xrd/xy/2019-06-19T14_53_56.517003+00_00_LBL_H9.xy
'Id: "" Comment: "Integrate frame perovskite_03_001.gfrmwith cursor Wedge Cursor #3" Operator: "UC Berkeley" Anode: "Co" Scantype: "TwoTheta" TimePerStep: "400"
13.615 -0.0309372
13.815 -0.0104338
14.015 0.0374417
14.215 0.000117312
14.415 0.0621792
14.615 0.0590122
14.815 0.0187462
15.015 0.0797804
15.215 0.0447797
15.415 0.0265465
15.615 0.0843052
15.815 0.0789116
16.015 0.0287671
16.215 0.0518204
16.415 0.0464564
16.615 0.0959507
16.815 0.158407
17.015 0.0904872
17.215 0.0126534
17.415 0.036898
17.615 0.0465537
17.815 0.112861
18.015 0.0960874
18.215 0.100642
18.415 0.124016
18.615 0.0385143
18.815 0.0149369
19.015 0.0103563
19.215 0.0205906
19.415 0.024566
19.615 0.00507236
19.815 0.0618769
20.015 0.0229175
20.215 0.0200839
20.415 0.0638856
20.615 0.06062
20.815 0.133163
21.015 0.73303
21.215 0.121892
21.415 0.067317
21.615 0.074186
21.815 0.0231199
22.015 0.030696
22.215 -0.0310551
22.415 -0.0185753
22.615 0.0399407
22.815 0.0365639
23.015 -0.000199114
23.215 0.0248307
23.415 -5.78407e-05
23.615 0.0352521
23.815 0.00767956
24.015 0.265835
24.215 0.103699
24.415 0.0109778
24.615 0.0111225
24.815 0.0691274
25.015 0.147455
25.215 3.16256
25.415 1.64897
25.615 0.0787393
25.815 0.0383865
26.015 -0.00631928
26.215 0.0939179
26.415 0.155319
26.615 0.03343
26.815 0.0353562
27.015 0.146455
27.215 -0.0163932
27.415 0.082511
27.615 0.00556178
27.815 0.337056
28.015 0.218361
28.215 0.032602
28.415 0.00691928
28.615 0.00998202
28.815 0.100796
29.015 0.0508369
29.215 0.136802
29.415 1.04372
29.615 12.6252
29.815 0.781159
30.015 0.0878418
30.215 0.0548337
30.415 0.100905
30.615 0.034032
30.815 0.0601364
31.015 -0.0256128
31.215 -0.00481678
31.415 0.0229934
31.615 -0.00968305
31.815 0.446894
32.015 0.177062
32.215 0.375372
32.415 0.527988
32.615 0.0147601
32.815 0.0135294
33.015 0.0209728
33.215 0.0620235
33.415 0.0271092
33.615 0.101179
33.815 2.46817
34.015 3.77278
34.215 0.265193
34.415 0.0280087
34.615 -0.0159732
34.815 0.0695697
35.015 0.135562
35.215 0.00171074
35.415 -0.024283
35.615 0.00573763
35.815 0.0595305
36.015 0.742856
36.215 0.602524
36.415 0.0177882
36.615 -0.00138788
36.815 0.00145704
37.015 -0.00343762
37.215 0.0108447
37.415 0.0446646
37.615 0.0149363
37.815 0.0380426
38.015 0.203083
38.215 1.1866
38.415 1.72962
38.615 0.229894
38.815 0.10454
39.015 0.0398254
39.215 0.096377
39.415 -0.0188214
39.615 0.0159006
39.815 0.0253491
40.015 0.560037
40.215 0.511292
40.415 0.0850151
40.615 0.0147013
40.815 -0.00145809
41.015 0.000804248
41.215 0.0268692
41.415 0.0485692
41.615 0.102584
41.815 0.00217135
42.015 0.0319774
42.215 0.277598
42.415 0.0545683
42.615 0.126903
42.815 0.649964
43.015 0.0280819
43.215 0.0320374
43.415 0.0117237
43.615 0.00337402
43.815 0.0284601
44.015 0.158586
44.215 0.370652
44.415 0.14993
44.615 0.0729013
44.815 -0.00240053
45.015 0.00887679
45.215 0.080762
45.415 0.0595489
45.615 0.238825
45.815 0.0894387
46.015 0.0298177
46.215 0.00157407
46.415 0.00939847
46.615 -0.00399996
46.815 0.00969875
47.015 0.0530156
47.215 0.010961
47.415 0.0253675
47.615 0.0176957
47.815 0.0714758
48.015 0.0685671
48.215 -0.0113844
48.415 0.0015591
48.615 0.0898791
48.815 0.188212
49.015 0.0757787
49.215 0.00186402
49.415 0.0180957
49.615 0.00472971
49.815 0.0327422
50.015 0.0169119
50.215 -0.00570637
50.415 -0.00844442
50.615 0.00834319
50.815 0.0359246
51.015 0.061773
51.215 0.017955
51.415 0.0522822
51.615 -0.00751893
51.815 -0.0042343
52.015 0.032747
52.215 -0.00891285
52.415 -0.00526692
52.615 0.00693949
52.815 0.0382531
53.015 0.0798596
53.215 0.072731
53.415 0.177445
53.615 0.0245949
53.815 0.0322829
54.015 0.0434598
54.215 0.0102204
54.415 -0.0216284
54.615 0.00480944
54.815 0.00431216
55.015 0.029402
55.215 0.0639715
55.415 0.0614119
55.615 0.0272058
55.815 0.0160755
56.015 0.00476305
56.215 0.00139732
56.415 0.034427
56.615 0.0270801
56.815 0.0324485
57.015 0.0171602
57.215 0.0408488
57.415 0.00232936
57.615 -0.000901064
57.815 0.105111
58.015 0.272492
58.215 0.0898583
58.415 0.00952321
58.615 0.013922
58.815 -0.0129208
59.015 0.0342203
59.215 0.00681423
59.415 0.0351912
59.615 0.0563325
59.815 -0.0110287
60.015 0.0179823
60.215 0.00359076
60.415 0.0286415
60.615 0.00384471
60.815 -0.00659753
61.015 -0.0105206
61.215 0.0485256
61.415 0.0916284
61.615 0.111208
61.815 0.2489
62.015 0.069372
62.215 0.01407
62.415 0.0214634
62.615 0.115148
62.815 0.163894
63.015 0.0614859
63.215 0.0178583
63.415 0.0111731
63.615 0.00536684
63.815 0.0159911
64.015 0.0142852
64.215 0.0340218
64.415 -0.00037785
64.615 0.0135128
64.815 0.00686504
65.015 0.00694163
65.215 0.00858941
65.415 0.0124057
65.615 0.0644564
65.815 0.0467262
66.015 0.0353786
66.215 0.061624
66.415 0.362576
66.615 0.532407
66.815 0.197549
67.015 0.0831937
67.215 0.0277257
67.415 0.0318406
67.615 0.0342956
67.815 0.0351771
68.015 -0.0041415
68.215 0.0119183
68.415 0.00192614
68.615 0.00915272
68.815 -0.0028165
69.015 0.0188646
69.215 0.00592002
69.415 0.00883286
69.615 0.00124345
69.815 0.0100653
70.015 0.0161675
70.215 0.00824003
70.415 -0.00782286
70.615 -0.0205489
70.815 -0.00274189
71.015 0.0256279
71.215 0.263313
71.415 0.425833
71.615 0.300237
71.815 0.201887
72.015 0.104942
72.215 0.0203174
72.365 -0.021019