File: data/xrd/xy/2019-02-21T16_43_20.274786+00_00_LBL.xy
'Id: "" Comment: "Integrate frame ibutyl0_00_003.gfrmwith cursor Wedge Cursor #1" Operator: "UC Berkeley" Anode: "Co" Scantype: "TwoTheta" TimePerStep: "600"
14.08 -0.0261277
14.265 0.0385441
14.45 0.0588122
14.635 0.0560573
14.82 0.0521743
15.005 -0.00141849
15.19 0.0619009
15.375 0.0422857
15.56 0.552727
15.745 0.944969
15.93 0.123229
16.115 0.0490776
16.3 0.0146573
16.485 0.0539128
16.67 0.0558429
16.855 0.106131
17.04 0.039402
17.225 0.00212994
17.41 0.0268037
17.595 0.019882
17.78 0.0216386
17.965 -0.013614
18.15 0.00401343
18.335 0.0232332
18.52 0.013453
18.705 0.0266027
18.89 0.0084261
19.075 0.0437513
19.26 -0.00171819
19.445 0.0400558
19.63 0.0520922
19.815 0.0594507
20 0.0468148
20.185 0.0639716
20.37 0.0256617
20.555 0.0171025
20.74 -0.00333651
20.925 -0.000788843
21.11 0.0126702
21.295 0.0189335
21.48 0.0049284
21.665 0.0157828
21.85 0.0156129
22.035 0.0337129
22.22 0.0239974
22.405 0.00691854
22.59 0.0510055
22.775 0.105769
22.96 0.0942814
23.145 0.180585
23.33 0.781842
23.515 14.8997
23.7 5.3877
23.885 0.24249
24.07 0.124583
24.255 0.0636217
24.44 0.0603341
24.625 0.0412155
24.81 0.0187807
24.995 0.0291933
25.18 0.0109694
25.365 0.023932
25.55 0.0121637
25.735 0.00333822
25.92 0.0110677
26.105 0.0483788
26.29 0.226778
26.475 0.00419529
26.66 0.0118835
26.845 0.0297625
27.03 0.0145973
27.215 0.0195779
27.4 0.0207279
27.585 0.0203175
27.77 0.0443166
27.955 0.0228972
28.14 -0.0137152
28.325 0.0878456
28.51 0.0723765
28.695 0.027687
28.88 0.0155645
29.065 0.00730064
29.25 0.0162979
29.435 0.010581
29.62 0.0267438
29.805 0.0389195
29.99 0.0466241
30.175 0.0554796
30.36 0.0774151
30.545 0.122228
30.73 0.184005
30.915 0.226744
31.1 0.37897
31.285 0.827953
31.47 8.29814
31.655 36.8817
31.84 2.02496
32.025 0.570915
32.21 1.07974
32.395 0.469408
32.58 0.191287
32.765 0.127469
32.95 0.108652
33.135 0.142303
33.32 0.0449652
33.505 0.0490598
33.69 0.149959
33.875 0.0561278
34.06 0.0922377
34.245 0.0292113
34.43 0.0071218
34.615 0.00845569
34.8 0.00381615
34.985 -0.00536001
35.17 -0.00931887
35.355 -0.00573012
35.54 0.00436964
35.725 0.00326508
35.91 -0.0069392
36.095 -0.0146113
36.28 -0.0115123
36.465 -0.0202708
36.65 -0.017901
36.835 0.013807
37.02 0.0749457
37.205 0.0194145
37.39 0.0103931
37.575 0.0199666
37.76 0.0732485
37.945 0.0370628
38.13 0.0489722
38.315 0.0400793
38.5 0.0278013
38.685 0.0630058
38.87 0.0884191
39.055 0.12483
39.24 0.278718
39.425 1.23967
39.61 2.66127
39.795 18.2366
39.98 7.07609
40.165 0.433896
40.35 0.163198
40.535 0.112933
40.72 0.0718194
40.905 0.066788
41.09 0.0943344
41.275 0.0308447
41.46 0.0341633
41.645 0.0180668
41.83 0.0150904
42.015 -0.00375502
42.2 0.00832672
42.385 0.0182351
42.57 0.00497913
42.755 0.00658076
42.94 0.00225945
43.125 0.0104056
43.31 0.02654
43.495 0.00644264
43.68 0.00786075
43.865 0.0093806
44.05 0.012257
44.235 0.0166263
44.42 0.0297749
44.605 0.0349529
44.79 0.0230674
44.975 0.00579697
45.16 0.0136846
45.345 -0.00506351
45.53 -0.00525294
45.715 0.0059848
45.9 0.000829105
46.085 0.00847588
46.27 0.0478306
46.455 0.161518
46.64 0.142627
46.825 0.031904
47.01 0.024316
47.195 0.0416535
47.38 0.0404746
47.565 0.0170739
47.75 -0.00316039
47.935 -0.00469452
48.12 0.101827
48.305 0.205611
48.49 0.0352762
48.675 0.0175237
48.86 0.00760829
49.045 -0.00917529
49.23 2.17769e-05
49.415 -0.0092525
49.6 0.0282674
49.785 0.0771
49.97 0.0326238
50.155 0.0123884
50.34 -0.00307385
50.525 0.00338604
50.71 -0.0111082
50.895 0.00486642
51.08 -0.0123322
51.265 -0.00648711
51.45 0.00507801
51.635 0.0210416
51.82 0.0287024
52.005 0.042167
52.19 0.0636222
52.375 0.0336988
52.56 0.0990593
52.745 0.203954
52.93 0.117106
53.115 0.0206064
53.3 0.00856078
53.485 -0.0165372
53.67 0.00278431
53.855 0.0179501
54.04 0.0653536
54.225 0.0612024
54.41 0.0356095
54.595 0.0106514
54.78 0.00076574
54.965 -0.0106867
55.15 -0.0125656
55.335 0.00896541
55.52 0.0345862
55.705 0.0310551
55.89 0.00336359
56.075 -0.00921822
56.26 -0.00460066
56.445 -0.00742588
56.63 0.00682311
56.815 0.074053
57 0.220822
57.185 0.0941593
57.37 0.00331602
57.555 0.00510591
57.74 0.00456624
57.925 -0.00356392
58.11 0.0408028
58.295 0.108616
58.48 0.0804391
58.665 0.0331771
58.85 0.00997633
59.035 0.0124704
59.22 0.0568801
59.405 0.0698357
59.59 0.0445307
59.775 0.0293669
59.96 0.0101019
60.145 -0.0019751
60.33 -0.00621616
60.515 -0.000362197
60.7 0.00231638
60.885 -0.0125579
61.07 0.00693633
61.255 0.0155774
61.44 0.0160753
61.625 0.0192369
61.81 0.0159363
61.995 0.00938683
62.18 0.00490476
62.365 -0.00443519
62.55 0.0309454
62.735 0.0119708
62.92 0.00866041
63.105 0.00728553
63.29 0.0163611
63.475 0.0204937
63.66 0.0857057
63.845 0.240325
64.03 0.49302
64.215 0.51054
64.4 0.145968
64.585 0.0186036
64.77 0.00280998
64.955 -0.0042895
65.14 0.00247707
65.325 0.0197446
65.51 0.00793397
65.695 0.0347169
65.88 0.156294
66.065 0.228946
66.25 0.148735
66.435 0.0508688
66.62 -0.000152951
66.805 -0.0124839
66.99 -0.0108321
67.175 0.0224054
67.36 0.0918675
67.545 0.108396
67.73 0.0988895
67.915 0.0605746
68.1 0.0113439
68.285 -0.000551014
68.38 -0.0163576