File: data/xrd/xy/2019-05-29T19_56_50.129046+00_00_LBL_G1.xy
'Id: "" Comment: "Integrate frame 4Fluorophenyl_03_002.gfrmwith cursor Wedge Cursor #3" Operator: "UC Berkeley" Anode: "Co" Scantype: "TwoTheta" TimePerStep: "600"
14.415 -0.0268868
14.59 0.113911
14.765 0.01523
14.94 0.00158692
15.115 0.0192764
15.29 0.0230063
15.465 0.0775942
15.64 0.0215918
15.815 0.033108
15.99 0.00208883
16.165 0.0486032
16.34 0.0136632
16.515 0.0207086
16.69 0.0721761
16.865 0.026621
17.04 0.106718
17.215 0.324992
17.39 0.0182156
17.565 0.0306818
17.74 0.00213735
17.915 0.0253649
18.09 0.0355608
18.265 0.0545813
18.44 0.456855
18.615 1.15677
18.79 0.0234809
18.965 0.00753858
19.14 0.00978229
19.315 0.0152806
19.49 0.0116629
19.665 -0.00355801
19.84 -0.000315118
20.015 0.00862222
20.19 -0.00572974
20.365 0.0216634
20.54 0.0242908
20.715 0.0206976
20.89 0.0195372
21.065 0.0290696
21.24 -0.00912565
21.415 0.0150233
21.59 -0.007042
21.765 0.0215699
21.94 0.026862
22.115 0.015505
22.29 0.00491713
22.465 0.0366701
22.64 0.0200508
22.815 0.00834404
22.99 0.00774425
23.165 -0.00268119
23.34 0.0218429
23.515 0.0277488
23.69 0.0364751
23.865 0.0200436
24.04 -0.006913
24.215 -0.0097589
24.39 -1.97631e-05
24.565 0.0509334
24.74 0.254691
24.915 3.70815
25.09 1.23518
25.265 0.0561086
25.44 0.0197321
25.615 0.0209717
25.79 -0.0197235
25.965 -0.018504
26.14 0.0238206
26.315 0.0204068
26.49 0.0305146
26.665 0.0568063
26.84 0.0157943
27.015 0.0561174
27.19 0.141278
27.365 0.0158629
27.54 -0.00228395
27.715 0.0135408
27.89 0.0398958
28.065 -0.00916428
28.24 0.00447685
28.415 0.0284075
28.59 0.03433
28.765 0.027238
28.94 0.0102411
29.115 0.00902681
29.29 0.00231217
29.465 0.00896822
29.64 0.0576295
29.815 -0.0234892
29.99 0.097222
30.165 0.527546
30.34 0.0768455
30.515 0.0248479
30.69 0.0162098
30.865 0.0553179
31.04 0.166801
31.215 1.92742
31.39 14.574
31.565 1.23681
31.74 0.372905
31.915 0.126231
32.09 0.0431083
32.265 0.00524523
32.44 0.00472372
32.615 -0.00997425
32.79 -0.00573189
32.965 0.000468551
33.14 -0.0117271
33.315 -0.0159035
33.49 -0.00671193
33.665 0.00780649
33.84 0.271625
34.015 0.381223
34.19 0.189869
34.365 0.106389
34.54 0.400216
34.715 0.086171
34.89 0.0491331
35.065 0.00483912
35.24 0.0129021
35.415 -0.0170422
35.59 -0.00963268
35.765 -0.00258517
35.94 -0.0160545
36.115 0.000119685
36.29 0.0137717
36.465 -0.00843257
36.64 -0.0225587
36.815 -0.0165301
36.99 -0.0090297
37.165 -0.00203346
37.34 0.0799638
37.515 0.172556
37.69 0.450775
37.865 11.6135
38.04 4.30584
38.215 0.249821
38.39 0.0962999
38.565 0.0971147
38.74 -0.0017827
38.915 -0.00627793
39.09 -0.0120279
39.265 -0.0181778
39.44 -0.00352026
39.615 0.0631404
39.79 0.0767366
39.965 0.269256
40.14 0.12702
40.315 0.00644573
40.49 -0.0186447
40.665 0.142146
40.84 0.207112
41.015 0.0257084
41.19 -0.019582
41.365 -0.01832
41.54 0.00740203
41.715 0.0100964
41.89 0.0202724
42.065 0.0112764
42.24 -0.00371118
42.415 -0.0137175
42.59 0.0055401
42.765 -0.00661493
42.94 -0.0215711
43.115 -0.00145558
43.29 0.0457851
43.465 0.0284535
43.64 0.036259
43.815 0.0037499
43.99 0.0186331
44.165 -0.00301845
44.34 0.0154006
44.515 0.0559123
44.69 0.109234
44.865 0.0712035
45.04 0.134205
45.215 0.548547
45.39 0.122936
45.565 0.00616551
45.74 -0.00766428
45.915 0.0162097
46.09 0.137475
46.265 0.49264
46.44 0.136071
46.615 5.85283e-05
46.79 -0.000931379
46.965 -0.00642248
47.14 0.0172758
47.315 0.0263865
47.49 0.0252278
47.665 -0.00332027
47.84 0.00386043
48.015 0.00445015
48.19 0.0064997
48.365 -0.00625812
48.54 0.0118185
48.715 0.0790754
48.89 0.117529
49.065 0.0265777
49.24 0.0698196
49.415 0.0240457
49.59 0.0711872
49.765 0.0629079
49.94 0.000979709
50.115 -0.00113958
50.29 0.00421561
50.465 -0.00441581
50.64 0.00716036
50.815 -0.00963953
50.99 -0.00195544
51.165 -0.00942425
51.34 0.0185519
51.515 0.0824867
51.69 0.0531379
51.865 -0.000292323
52.04 -0.00557511
52.215 -0.00228584
52.39 0.0366966
52.565 0.0421592
52.74 0.00216296
52.915 0.0652934
53.09 0.0570641
53.265 0.00971124
53.44 -0.0160795
53.615 0.0165699
53.79 0.048684
53.965 0.0384628
54.14 -0.0192728
54.315 0.00159594
54.49 0.0365109
54.665 0.0490416
54.84 0.0107285
55.015 0.152187
55.19 0.0998956
55.365 0.0327742
55.54 0.00994905
55.715 0.00622786
55.89 0.0356572
56.065 0.0342683
56.24 0.0582273
56.415 0.0427097
56.59 -0.00432438
56.765 -0.0112148
56.94 0.00346577
57.115 -0.000520898
57.29 0.000961583
57.465 0.0106942
57.64 0.0184263
57.815 0.0018285
57.99 0.00814128
58.165 -0.0145373
58.34 0.0231197
58.515 0.00479839
58.69 0.01033
58.865 0.0529712
59.04 0.0696343
59.215 0.0354846
59.39 0.00280434
59.565 -0.0145285
59.74 -0.0164404
59.915 0.004475
60.09 0.0123805
60.265 0.00826119
60.44 0.0103531
60.615 0.000941388
60.79 -0.00532525
60.965 0.00434935
61.14 0.0404509
61.315 0.0188875
61.49 0.0773948
61.665 0.142087
61.84 0.0779695
62.015 0.00431068
62.19 -0.0110052
62.365 -0.0178332
62.54 0.0239726
62.715 0.0491452
62.89 0.0189737
63.065 0.0464146
63.24 0.152644
63.415 0.0875836
63.59 0.0395575
63.765 0.00774161
63.94 -0.00794086
64.115 0.0136595
64.29 -0.00465265
64.465 0.00782428
64.64 0.00173624
64.815 0.0121317
64.99 0.00239752
65.165 -0.0126206
65.34 -0.00872651
65.515 0.0347797
65.69 0.00430362
65.865 -0.00927967
65.915 -0.0181453