File: data/xrd/xy/2019-06-18T20_54_55.536969+00_00_LBL_F1.xy
'Id: "" Comment: "Integrate frame 20190723_4triFMePh_02_002.gfrmwith cursor Wedge Cursor #1" Operator: "UC Berkeley" Anode: "Co" Scantype: "TwoTheta" TimePerStep: "600"
23.355 -0.0251342
23.535 0.0344254
23.715 0.0232667
23.895 0.00154944
24.075 0.0381971
24.255 0.106418
24.435 0.0467923
24.615 0.115281
24.795 -0.00354215
24.975 0.0609147
25.155 0.119574
25.335 0.0967444
25.515 0.122026
25.695 0.057718
25.875 0.00201719
26.055 0.136612
26.235 0.431835
26.415 0.0950496
26.595 -0.0085633
26.775 0.123777
26.955 0.0550324
27.135 0.071179
27.315 0.0650913
27.495 0.0103447
27.675 0.0189676
27.855 0.140928
28.035 0.00803902
28.215 0.0911302
28.395 0.0642945
28.575 0.0374571
28.755 0.0191425
28.935 0.105038
29.115 0.0978876
29.295 0.0828966
29.475 0.0264869
29.655 0.220414
29.835 0.178176
30.015 0.645915
30.195 6.7748
30.375 1.4414
30.555 0.13669
30.735 0.0191497
30.915 0.0705377
31.095 -0.00546558
31.275 0.103455
31.455 0.0429593
31.635 0.0544638
31.815 0.0237804
31.995 0.059611
32.175 0.0714054
32.355 0.0205915
32.535 -0.00501959
32.715 0.0476835
32.895 0.0597983
33.075 0.0316363
33.255 0.0808029
33.435 0.0287044
33.615 0.0698154
33.795 0.0579179
33.975 0.0281717
34.155 0.0546426
34.335 0.0311474
34.515 0.00743976
34.695 0.040719
34.875 0.0231172
35.055 0.076104
35.235 0.0257338
35.415 0.0135283
35.595 0.0689251
35.775 0.0682837
35.955 0.0596269
36.135 0.125061
36.315 0.0368646
36.495 0.00991534
36.675 0.0212633
36.855 0.00231455
37.035 0.0208526
37.215 0.0187837
37.395 0.0510423
37.575 0.015984
37.755 -0.00320074
37.935 0.016297
38.115 0.0338462
38.295 0.0330909
38.475 0.0118187
38.655 0.0240434
38.835 -0.0120138
39.015 0.0256258
39.195 -0.00158435
39.375 -0.00756423
39.555 0.0886819
39.735 0.242428
39.915 2.00139
40.095 4.33346
40.275 0.954276
40.455 0.171417
40.635 0.0461543
40.815 0.014334
40.995 0.0212835
41.175 -0.0123408
41.355 0.0117935
41.535 -0.00284561
41.715 0.0298686
41.895 0.0533311
42.075 0.046009
42.255 0.0584726
42.435 0.0212442
42.615 0.0642482
42.795 0.0271561
42.975 0.0013394
43.155 -0.0179397
43.335 0.0360146
43.515 0.0782241
43.695 0.0249907
43.875 0.0466788
44.055 0.0481815
44.235 0.0265397
44.415 0.0332972
44.595 0.034807
44.775 0.0253008
44.955 0.0712444
45.135 0.838943
45.315 1.29225
45.495 0.247132
45.675 0.0709538
45.855 0.0761072
46.035 0.467224
46.215 2.69644
46.395 1.44085
46.575 0.185485
46.755 0.0023899
46.935 -0.000884468
47.115 0.0147843
47.295 0.0100769
47.475 0.0153663
47.655 0.0475731
47.835 0.00557354
48.015 0.0461667
48.195 0.028099
48.375 0.00670015
48.555 0.109322
48.735 0.553918
48.915 0.485334
49.095 0.0366065
49.275 -0.0125256
49.455 -0.00666952
49.635 0.000743078
49.815 0.00252909
49.995 0.00300704
50.175 0.0345696
50.355 0.0132693
50.535 -0.00820581
50.715 0.0369844
50.895 0.0137711
51.075 0.0198775
51.255 0.0249546
51.435 0.00453749
51.615 0.021075
51.795 0.00794114
51.975 0.014492
52.155 0.0458576
52.335 0.0141148
52.515 0.0078591
52.695 0.136085
52.875 0.632845
53.055 1.27986
53.235 0.762191
53.415 0.110339
53.595 0.0255346
53.775 0.019731
53.955 0.0728597
54.135 0.00156912
54.315 -0.0032995
54.495 0.00993748
54.675 -0.00528188
54.855 0.00214071
55.035 0.0163233
55.215 0.00524178
55.395 0.0228601
55.575 0.00499479
55.755 0.0724135
55.935 0.177178
56.115 0.806994
56.295 1.0533
56.475 0.474317
56.655 0.0862201
56.835 0.0342013
57.015 0.0106652
57.195 0.0221077
57.375 0.0405026
57.555 0.0452842
57.735 0.0450475
57.915 0.0214212
58.095 0.0252638
58.275 0.0131522
58.455 0.00158883
58.635 0.003493
58.815 0.0216505
58.995 0.0305103
59.175 0.0405431
59.355 0.0401362
59.535 0.0354279
59.715 0.0203943
59.895 0.05818
60.075 0.0457832
60.255 0.0348545
60.435 0.0376801
60.615 0.0202926
60.795 -0.00554552
60.975 -0.00643566
61.155 0.0401138
61.335 0.098946
61.515 0.391584
61.695 0.661247
61.875 0.512942
62.055 0.16748
62.235 0.0300018
62.415 0.0643361
62.595 0.331883
62.775 0.659669
62.955 0.580433
63.135 0.205322
63.315 0.0415223
63.495 0.00974728
63.675 0.0410556
63.855 0.0349622
64.035 0.016188
64.215 0.0349894
64.395 0.0167567
64.575 0.0527764
64.755 0.0374713
64.935 0.016586
65.115 0.0223108
65.295 0.0150195
65.475 0.00469459
65.655 0.011362
65.835 0.0194053
66.015 0.0113941
66.195 0.0216434
66.375 0.1374
66.555 0.389324
66.735 0.573491
66.915 0.362612
67.095 0.107698
67.275 0.0422971
67.455 0.0327206
67.635 0.0250001
67.815 -0.000467168
67.995 0.0636398
68.175 0.118545
68.355 0.158769
68.535 0.0348585
68.715 0.0475264
68.895 0.0358808
69.075 0.00963898
69.255 0.0305975
69.435 0.0368803
69.615 0.0712723
69.795 0.0178686
69.975 0.0196388
70.155 0.0165696
70.335 0.00617134
70.515 0.00726118
70.695 0.0396422
70.875 0.009179
71.055 0.00456782
71.235 0.0220941
71.415 0.0169835
71.595 0.000316927
71.775 0.0444454
71.955 0.012453
72.135 0.0387247
72.315 0.0263113
72.495 -0.00479931
72.675 0.0810191
72.855 0.162362
73.035 0.219205
73.215 0.161477
73.395 0.0812934
73.575 0.0525504
73.755 0.00648864
73.935 0.035095
74.115 0.014401
74.295 0.0287513
74.475 0.0118212
74.655 0.0292542
74.835 0.00229108
75.015 0.0199658
75.195 0.0206185
75.375 0.143431
75.555 0.259552
75.735 0.198663
75.915 -0.020033