File: data/xrd/xy/2019-05-23TO2_12_25.720560+00_00_LBL_E1.xy
'Id: "" Comment: "Integrate frame 06062019_neo_Pentyl_03_002.gfrmwith cursor Wedge Cursor #3" Operator: "UC Berkeley" Anode: "Co" Scantype: "TwoTheta" TimePerStep: "600"
14.32 -0.0255923
14.495 0.0116323
14.67 -0.0246017
14.845 0.0545655
15.02 0.0374867
15.195 0.0272446
15.37 0.0256225
15.545 0.0145851
15.72 -0.0227206
15.895 0.0329646
16.07 0.0554662
16.245 0.00718384
16.42 0.0141157
16.595 -0.0134349
16.77 0.0234283
16.945 0.0182151
17.12 0.0334732
17.295 0.0182522
17.47 0.0377883
17.645 0.0154049
17.82 0.0489473
17.995 0.0419585
18.17 0.0678757
18.345 0.00144147
18.52 0.0351964
18.695 0.0336675
18.87 0.020018
19.045 0.0139091
19.22 0.0213109
19.395 0.034892
19.57 0.00583871
19.745 0.0421535
19.92 0.0147685
20.095 0.00089665
20.27 0.010994
20.445 0.00848518
20.62 0.0400932
20.795 0.010832
20.97 0.0239993
21.145 0.0161482
21.32 0.0218949
21.495 0.0334158
21.67 0.00567123
21.845 0.0193403
22.02 0.0533925
22.195 0.0269155
22.37 0.14307
22.545 0.207987
22.72 0.0662141
22.895 0.112473
23.07 0.0419627
23.245 0.0289094
23.42 0.0398457
23.595 0.0968902
23.77 0.0916248
23.945 0.0337745
24.12 -0.00105101
24.295 0.0205446
24.47 0.0268639
24.645 0.0224994
24.82 0.014664
24.995 0.0283104
25.17 0.0346505
25.345 0.0152614
25.52 -0.00257632
25.695 0.0455357
25.87 0.0516902
26.045 0.0433045
26.22 -0.000603272
26.395 0.0547963
26.57 0.0439757
26.745 0.0474343
26.92 0.0180298
27.095 0.0324942
27.27 0.106818
27.445 0.304882
27.62 0.400877
27.795 0.0637276
27.97 0.0443482
28.145 0.0345928
28.32 0.0411573
28.495 0.0115206
28.67 0.0187492
28.845 0.0183853
29.02 0.0224834
29.195 0.00916634
29.37 0.0220142
29.545 -0.0229038
29.72 -0.00214769
29.895 0.0176426
30.07 0.00868205
30.245 0.0396366
30.42 0.0297524
30.595 0.0285835
30.77 0.0171837
30.945 0.0492074
31.12 0.327417
31.295 0.208389
31.47 0.116118
31.645 0.243264
31.82 0.490542
31.995 0.214187
32.17 0.292936
32.345 0.314303
32.52 0.557691
32.695 0.284707
32.87 0.527639
33.045 0.145616
33.22 0.113944
33.395 0.278938
33.57 0.202113
33.745 0.129383
33.92 0.210521
34.095 -0.00666999
34.27 0.0165809
34.445 0.139403
34.62 0.339956
34.795 0.0682333
34.97 -0.0130762
35.145 -0.0163202
35.32 0.020743
35.495 0.302028
35.67 0.36241
35.845 0.0698695
36.02 0.0806604
36.195 0.0565423
36.37 0.0988277
36.545 0.296297
36.72 1.09578
36.895 0.456061
37.07 0.0746789
37.245 0.0119377
37.42 0.0144004
37.595 0.0142473
37.77 0.0669858
37.945 0.180954
38.12 0.28676
38.295 0.32975
38.47 0.115993
38.645 0.0210343
38.82 0.079906
38.995 0.114141
39.17 0.213166
39.345 0.20096
39.52 0.131571
39.695 0.133247
39.87 0.116823
40.045 0.175428
40.22 0.0498608
40.395 -0.00598543
40.57 0.00167353
40.745 0.00523495
40.92 0.0702019
41.095 0.0240547
41.27 -0.00136493
41.445 0.0284451
41.62 0.0329163
41.795 0.0275347
41.97 0.0142127
42.145 0.00875078
42.32 0.0145928
42.495 -0.00281651
42.67 -0.010718
42.845 -0.00776008
43.02 -0.011098
43.195 -0.00486864
43.37 0.00261749
43.545 0.00901425
43.72 0.0319275
43.895 0.010786
44.07 0.000207625
44.245 0.00861203
44.42 0.0033192
44.595 0.0805108
44.77 0.13346
44.945 0.228682
45.12 0.358265
45.295 0.166693
45.47 0.282211
45.645 0.204072
45.82 0.147606
45.995 0.169506
46.17 0.109064
46.345 0.24361
46.52 0.29805
46.695 0.197477
46.87 0.118342
47.045 0.00765994
47.22 -0.00993196
47.395 0.0285212
47.57 0.0430222
47.745 -0.00355396
47.92 -0.0153033
48.095 0.0103877
48.27 0.0601973
48.445 0.156686
48.62 0.107949
48.795 0.0132347
48.97 0.0205024
49.145 0.0017202
49.32 -0.017306
49.495 0.00250821
49.67 0.0353611
49.845 0.0658097
50.02 0.0577506
50.195 0.0701465
50.37 0.191913
50.545 0.326608
50.72 0.224087
50.895 0.178688
51.07 0.1424
51.245 0.171982
51.42 0.090458
51.595 0.0733743
51.77 0.0476333
51.945 0.0592383
52.12 0.13112
52.295 0.0972882
52.47 0.0791529
52.645 0.126604
52.82 0.164289
52.995 0.0739716
53.17 0.0343754
53.345 0.0228015
53.52 0.0349468
53.695 0.0476264
53.87 0.0547755
54.045 0.0743525
54.22 0.0428551
54.395 0.0160158
54.57 -0.00259777
54.745 0.00115207
54.92 -0.00502056
55.095 -0.0157117
55.27 -0.0160417
55.445 -0.000939952
55.62 -0.00840248
55.795 0.0192022
55.97 0.0100536
56.145 0.00693045
56.32 0.037009
56.495 0.120511
56.67 0.14276
56.845 0.135361
57.02 0.107016
57.195 0.0407776
57.37 0.0216404
57.545 -0.00103945
57.72 -0.00881447
57.895 0.0106191
58.07 0.00517286
58.245 -0.00737893
58.42 -0.00471475
58.595 0.0038685
58.77 0.0166124
58.945 0.0129457
59.12 0.0187357
59.295 0.0323243
59.47 0.0160833
59.645 0.00339717
59.82 -0.00677482
59.995 0.0100613
60.17 0.00637071
60.345 0.0416441
60.52 0.0647813
60.695 0.0436344
60.87 0.0662543
61.045 0.0726738
61.22 0.0321366
61.395 0.0285647
61.57 0.0810758
61.745 0.103229
61.92 0.130154
62.095 0.043179
62.27 0.0229727
62.445 0.0130657
62.62 0.0287726
62.795 0.028171
62.97 0.0452555
63.145 0.036917
63.32 0.0242308
63.495 0.00425707
63.67 -0.0098051
63.845 -0.00766777
64.02 -0.00505204
64.195 0.0159493
64.37 0.0130126
64.545 -0.00107362
64.72 0.00859422
64.895 0.0103505
65.07 0.00458683
65.245 -0.0073421
65.42 -0.0107632
65.595 0.000111012
65.77 -0.00135698
65.945 -0.00457196
66.12 0.00544336
66.295 0.046358
66.47 0.0369483
66.645 0.00847737
66.79 -0.0167256