File: data/xrd/xy/2019-06-21T14_37_13.758897+00_00_LBL_D4.xy
'Id: "" Comment: "Integrate frame perovskite_06_001.gfrmwith cursor Wedge Cursor #1" Operator: "UC Berkeley" Anode: "Co" Scantype: "TwoTheta" TimePerStep: "400"
13.82 -0.0312458
14.02 0.122925
14.22 -0.0297611
14.42 0.0712155
14.62 0.0229749
14.82 -0.000248708
15.02 0.0863659
15.22 0.0453259
15.42 0.0651962
15.62 0.0299318
15.82 0.0477179
16.02 0.0135275
16.22 0.086599
16.42 0.0842911
16.62 0.0441181
16.82 0.0966361
17.02 0.0410898
17.22 0.016423
17.42 0.0353847
17.62 0.048478
17.82 0.0332777
18.02 0.0962494
18.22 0.0606877
18.42 0.0424697
18.62 0.107311
18.82 0.056038
19.02 0.0694429
19.22 0.0015565
19.42 0.0503871
19.62 0.0311436
19.82 0.0189338
20.02 0.000411078
20.22 0.0539191
20.42 0.0284461
20.62 0.0319903
20.82 0.0169795
21.02 0.063593
21.22 0.013644
21.42 0.0323904
21.62 0.00862237
21.82 -0.00676014
22.02 0.0626269
22.22 0.0553881
22.42 0.036886
22.62 0.0393837
22.82 0.0761536
23.02 -0.00546452
23.22 0.0407451
23.42 0.086278
23.62 0.0455615
23.82 0.0525689
24.02 0.0476901
24.22 0.0292596
24.42 0.0541914
24.62 0.0631461
24.82 0.0522556
25.02 0.0668278
25.22 0.0165305
25.42 0.0714082
25.62 0.0156191
25.82 0.0570661
26.02 0.0533108
26.22 0.0340734
26.42 -0.0217764
26.62 0.079199
26.82 0.0454366
27.02 0.0690026
27.22 0.0532549
27.42 0.0490448
27.62 0.0335963
27.82 0.0195671
28.02 0.0190773
28.22 0.00149889
28.42 0.0291099
28.62 0.0692854
28.82 0.118602
29.02 0.0271141
29.22 0.0106485
29.42 0.00238247
29.62 0.0374318
29.82 0.0526573
30.02 0.883435
30.22 0.514502
30.42 0.0182749
30.62 -0.00363239
30.82 -0.0143582
31.02 0.0195233
31.22 0.00413921
31.42 0.0517506
31.62 0.0426568
31.82 0.0217684
32.02 0.0375545
32.22 -0.00289171
32.42 0.0230452
32.62 0.0229841
32.82 0.00223535
33.02 0.0105358
33.22 0.0152899
33.42 0.0176413
33.62 -0.0177515
33.82 0.0258115
34.02 0.025947
34.22 0.0216659
34.42 0.0313633
34.62 0.149614
34.82 0.690814
35.02 0.160682
35.22 0.00954722
35.42 0.0113042
35.62 -0.0026613
35.82 0.0295642
36.02 0.0335524
36.22 0.500827
36.42 0.641556
36.62 0.0320144
36.82 -0.00213733
37.02 0.0185568
37.22 0.0581166
37.42 0.801411
37.62 0.416662
37.82 0.0376478
38.02 0.0232008
38.22 -0.00729684
38.42 0.0407077
38.62 0.149437
38.82 0.0237606
39.02 0.0287172
39.22 0.00884278
39.42 -0.00632335
39.62 0.0168296
39.82 0.0190176
40.02 -0.000877781
40.22 -0.00135174
40.42 0.0203312
40.62 -0.00686169
40.82 0.0323104
41.02 -0.00164704
41.22 0.00804275
41.42 0.0922267
41.62 0.0288243
41.82 0.0104921
42.02 -0.00337785
42.22 0.017796
42.42 0.00545812
42.62 -0.00362371
42.82 0.00148786
43.02 -0.00555675
43.22 0.0263102
43.42 -0.00846489
43.62 0.0210342
43.82 0.0118666
44.02 0.00802855
44.22 0.0229922
44.42 0.026773
44.62 0.0855403
44.82 0.180197
45.02 0.0107522
45.22 0.0127986
45.42 -0.00201011
45.62 -0.000770777
45.82 0.00461372
46.02 -0.000315606
46.22 0.0255257
46.42 0.0104576
46.62 0.0112385
46.82 -0.0136174
47.02 0.00768216
47.22 0.0290262
47.42 0.0281782
47.62 0.262711
47.82 0.108707
48.02 0.276295
48.22 0.988172
48.42 0.204445
48.62 0.0193605
48.82 0.000305345
49.02 0.143585
49.22 0.183481
49.42 0.0232971
49.62 0.000350609
49.82 -0.0019796
50.02 0.0509525
50.22 0.28457
50.42 0.265307
50.62 0.033213
50.82 0.022
51.02 0.00476521
51.22 -0.0186604
51.42 0.00508565
51.62 0.0134004
51.82 0.076325
52.02 0.260533
52.22 0.0348784
52.42 0.0160447
52.62 0.0104448
52.82 -0.00405223
53.02 0.00931198
53.22 0.0108959
53.42 0.0108717
53.62 0.0268715
53.82 0.0861256
54.02 0.0338924
54.22 -0.00777308
54.42 -0.0080836
54.62 -0.019592
54.82 -0.00997777
55.02 0.0175648
55.22 0.00534363
55.42 -0.00619388
55.62 0.00511386
55.82 0.0174577
56.02 0.0139189
56.22 0.00279466
56.42 0.0200651
56.62 0.0136144
56.82 0.0165408
57.02 0.067445
57.22 0.0329159
57.42 0.0284979
57.62 0.0623649
57.82 0.274934
58.02 0.187102
58.22 0.0212859
58.42 0.0147377
58.62 0.00894526
58.82 0.0216388
59.02 0.0335611
59.22 0.0240268
59.42 0.0216205
59.62 0.0164412
59.82 0.0140902
60.02 0.0167648
60.22 0.0244075
60.42 0.0175181
60.62 0.00421671
60.82 0.00849655
61.02 0.01011
61.22 0.00788148
61.42 0.0240805
61.62 0.0506664
61.82 0.159297
62.02 0.0998229
62.22 0.0518951
62.42 0.0813451
62.62 0.316487
62.82 0.165482
63.02 0.0209827
63.22 0.0175042
63.42 0.0279564
63.62 0.0105778
63.82 0.0222875
64.02 0.00690244
64.22 -0.00947086
64.42 -0.000911876
64.62 0.00903007
64.82 0.0814242
65.02 0.113727
65.22 0.0438849
65.42 0.0162586
65.62 0.0135201
65.82 0.00872729
66.02 0.00279506
66.22 -0.0121637
66.42 0.0120131
66.62 0.00788334
66.82 -0.00623949
67.02 0.00561487
67.22 0.00195438
67.42 0.0150058
67.62 0.0137783
67.82 0.0506808
68.02 0.0273966
68.22 -0.00176657
68.42 0.0196306
68.62 -0.00450687
68.82 -0.0016319
69.02 -0.00185612
69.22 0.00914739
69.42 0.00348464
69.62 -0.000669595
69.82 -0.000633459
70.02 0.0428555
70.22 0.0187169
70.42 -0.0122026
70.62 0.00283602
70.82 0.0149281
71.02 0.0382583
71.22 0.119126
71.42 0.107702
71.62 0.0379888
71.82 -0.00658251
72.02 0.00292056
72.22 0.0421913
72.385 -0.0183