File: data/xrd/xy/2019-08-28T18_53_30.435495+00_00_LBL_G2.xy
'Id: "" Comment: "Integrate frame pyridinium0_00_003.gfrmwith cursor Wedge Cursor #1" Operator: "UC Berkeley" Anode: "Co" Scantype: "TwoTheta" TimePerStep: "600"
13.81 -0.024995
13.995 0.0718838
14.18 0.0204224
14.365 0.0296456
14.55 0.0202597
14.735 0.0232806
14.92 0.0396279
15.105 0.0759728
15.29 0.0526133
15.475 0.0288479
15.66 0.0317998
15.845 0.005365
16.03 0.0145734
16.215 0.0394542
16.4 0.0290389
16.585 0.0304466
16.77 0.0352322
16.955 0.0428351
17.14 0.0280946
17.325 0.0241333
17.51 0.0211486
17.695 0.0450875
17.88 0.0417043
18.065 0.0278106
18.25 0.0289387
18.435 0.0472947
18.62 0.039819
18.805 0.0479744
18.99 0.0591343
19.175 0.0253863
19.36 0.0249887
19.545 0.0170776
19.73 0.0444723
19.915 0.0250422
20.1 0.0211733
20.285 0.0387199
20.47 0.057076
20.655 0.0103204
20.84 0.205665
21.025 0.0268529
21.21 0.0551536
21.395 0.0689036
21.58 0.0522618
21.765 0.0213718
21.95 0.0107892
22.135 0.023865
22.32 0.0283811
22.505 0.0165308
22.69 0.0151172
22.875 0.0443624
23.06 0.152328
23.245 0.363016
23.43 0.0453232
23.615 0.0169584
23.8 0.0117185
23.985 -0.0193673
24.17 0.0379929
24.355 0.0282986
24.54 0.0358878
24.725 0.00708431
24.91 0.0289578
25.095 0.0404444
25.28 0.0507299
25.465 0.169283
25.65 0.0608613
25.835 0.0225318
26.02 0.0133047
26.205 0.0156115
26.39 0.06195
26.575 0.0423024
26.76 0.0107165
26.945 -0.0141439
27.13 0.00104811
27.315 0.0226266
27.5 -0.00155598
27.685 0.0146301
27.87 0.0231173
28.055 0.699175
28.24 1.45351
28.425 0.0718737
28.61 0.0309471
28.795 0.00365866
28.98 0.0387579
29.165 0.0681167
29.35 0.0586005
29.535 0.181163
29.72 0.165348
29.905 0.0123924
30.09 0.0453008
30.275 0.0382125
30.46 0.345607
30.645 0.580204
30.83 0.0293904
31.015 0.0119015
31.2 -0.00729255
31.385 -0.0148083
31.57 0.0103898
31.755 7.11424e-05
31.94 0.0107865
32.125 0.216679
32.31 0.658517
32.495 0.0821216
32.68 0.016435
32.865 -0.00216234
33.05 0.0592853
33.235 0.161299
33.42 0.0109947
33.605 8.97109e-05
33.79 -0.00102662
33.975 0.0771677
34.16 0.0601364
34.345 0.0234287
34.53 0.0941968
34.715 1.21276
34.9 1.07783
35.085 0.102589
35.27 -0.00192852
35.455 0.00186041
35.64 0.00668939
35.825 0.0324016
36.01 0.594817
36.195 0.371013
36.38 0.810674
36.565 0.502888
36.75 0.0224199
36.935 0.0339266
37.12 0.00573448
37.305 0.0309232
37.49 -0.00346368
37.675 0.0141623
37.86 0.314889
38.045 0.761572
38.23 0.113391
38.415 0.00216251
38.6 0.0495072
38.785 0.067682
38.97 0.00735378
39.155 -0.00219248
39.34 0.0274915
39.525 0.032921
39.71 -0.00649266
39.895 0.0191077
40.08 0.0492597
40.265 0.0725895
40.45 -0.00413314
40.635 -0.00638488
40.82 0.0300445
41.005 0.00599656
41.19 0.00538411
41.375 0.0628428
41.56 0.21634
41.745 0.0912088
41.93 0.0904747
42.115 0.432623
42.3 0.689943
42.485 0.824472
42.67 0.0753806
42.855 0.0752225
43.04 0.151422
43.225 0.0246657
43.41 0.368339
43.595 0.162154
43.78 0.135667
43.965 0.0042351
44.15 -0.00540933
44.335 0.00690618
44.52 0.0565347
44.705 0.697787
44.89 0.493599
45.075 0.192673
45.26 0.0199051
45.445 0.0215404
45.63 0.0132796
45.815 0.0216191
46 0.0224964
46.185 0.136999
46.37 0.241342
46.555 0.126705
46.74 0.149973
46.925 0.0558706
47.11 0.11707
47.295 0.779005
47.48 1.31548
47.665 1.13874
47.85 0.200268
48.035 0.0444196
48.22 0.0479124
48.405 0.0250001
48.59 0.00929223
48.775 -0.00925572
48.96 -0.00304731
49.145 -0.00578817
49.33 0.054226
49.515 0.103369
49.7 0.0799785
49.885 0.144375
50.07 0.0624445
50.255 0.0386186
50.44 0.0335511
50.625 0.291213
50.81 0.452399
50.995 0.138549
51.18 0.12128
51.365 0.136812
51.55 0.0473158
51.735 -0.0115147
51.92 0.00120995
52.105 0.0167597
52.29 0.08527
52.475 0.243898
52.66 0.130719
52.845 0.0285318
53.03 0.178857
53.215 0.27557
53.4 0.13409
53.585 0.0793246
53.77 0.0238186
53.955 0.092222
54.14 0.414458
54.325 0.411243
54.51 0.0989013
54.695 0.0333684
54.88 0.0249387
55.065 0.00178542
55.25 0.0122348
55.435 0.0257391
55.62 0.0581115
55.805 0.175701
55.99 0.182358
56.175 0.0361644
56.36 -0.0172443
56.545 -0.00114452
56.73 0.0148955
56.915 -4.74758e-05
57.1 0.0319702
57.285 0.0715512
57.47 0.161205
57.655 0.180421
57.84 0.057376
58.025 0.0790073
58.21 0.15723
58.395 0.101285
58.58 0.0444462
58.765 0.053874
58.95 0.0679564
59.135 0.00981107
59.32 0.000124943
59.505 0.022491
59.69 0.164027
59.875 0.391519
60.06 0.22966
60.245 0.0563452
60.43 -0.00594965
60.615 0.00485755
60.8 0.0266587
60.985 0.0428847
61.17 0.0686174
61.355 0.107113
61.54 0.131162
61.725 0.03372
61.91 -0.0168116
62.095 0.0337443
62.28 0.116827
62.465 0.0605541
62.65 0.0173753
62.835 0.0275854
63.02 0.0374693
63.205 0.00349223
63.39 0.00560382
63.575 0.0486502
63.76 0.0943069
63.945 0.0155148
64.13 -0.010467
64.315 0.112413
64.5 0.183213
64.685 0.182722
64.87 0.0638615
65.055 0.0102438
65.24 -0.000201959
65.425 0.0178978
65.61 0.0721368
65.795 0.0799094
65.98 0.0354054
66.165 0.0703253
66.35 0.0424521
66.535 0.00784016
66.72 0.00161358
66.905 0.00654783
67.09 0.00634993
67.275 0.0580609
67.46 0.113629
67.645 0.138045
67.83 0.0618896
68.015 0.042068
68.2 0.0419733
68.385 0.0294322
68.57 0.015902
68.755 0.0101559
68.94 -0.00570441
68.995 -0.0156522