File: data/xrd/xy/2019-09-30T17_18_05.146721+00_00_LBL_F7.xy
'Id: "" Comment: "Integrate frame diethylpropane13dia_02_001.gfrmwith cursor Wedge Cursor #3" Operator: "UC Berkeley" Anode: "Co" Scantype: "TwoTheta" TimePerStep: "600"
4.03 -0.0231597
4.23 0.111901
4.43 0.0383771
4.63 0.0666577
4.83 0.0757507
5.03 0.0116527
5.23 0.101692
5.43 0.0422636
5.63 0.104192
5.83 0.0330132
6.03 0.0397287
6.23 0.0718055
6.43 0.0675431
6.63 0.0128501
6.83 0.0599109
7.03 0.0820894
7.23 0.0367289
7.43 0.101826
7.63 0.0844781
7.83 -0.00063064
8.03 0.0532889
8.23 0.00395931
8.43 0.0707642
8.63 0.000135866
8.83 0.0283624
9.03 0.000748823
9.23 0.00538029
9.43 0.0668093
9.63 0.0677736
9.83 0.139838
10.03 0.0860232
10.23 0.0330204
10.43 0.173627
10.63 0.0760218
10.83 0.00205012
11.03 0.0164516
11.23 0.0173503
11.43 0.0503525
11.63 0.0555662
11.83 0.113631
12.03 0.10858
12.23 0.0294421
12.43 0.0434072
12.63 0.0756434
12.83 0.0409474
13.03 0.0389375
13.23 0.584744
13.43 0.048495
13.63 0.0261346
13.83 0.0422237
14.03 0.146444
14.23 0.115891
14.43 -0.00106749
14.63 0.0252213
14.83 0.0252703
15.03 0.00102284
15.23 0.0208556
15.43 -0.0234554
15.63 0.0190418
15.83 -0.002856
16.03 0.0432279
16.23 0.0211332
16.43 0.0736815
16.63 0.149268
16.83 0.251286
17.03 0.0741338
17.23 0.0179939
17.43 0.0454857
17.63 -0.00555008
17.83 0.00350453
18.03 0.0633055
18.23 0.0611788
18.43 0.0533759
18.63 0.0156833
18.83 0.0376928
19.03 0.0332964
19.23 0.322266
19.43 0.0753588
19.63 0.279366
19.83 0.0630468
20.03 0.0562488
20.23 0.033811
20.43 0.0654505
20.63 0.285706
20.83 0.0823483
21.03 0.194518
21.23 0.0475822
21.43 0.0298169
21.63 0.0574468
21.83 -0.00587406
22.03 0.029349
22.23 -0.00540323
22.43 -0.0140814
22.63 0.0548954
22.83 0.0932023
23.03 0.0600699
23.23 0.0490556
23.43 0.0404422
23.63 0.011046
23.83 0.156019
24.03 0.0518486
24.23 -0.0112245
24.43 0.0205386
24.63 0.0162084
24.83 0.0509094
25.03 -0.0306856
25.23 -0.00406404
25.43 -0.0182472
25.63 -0.00943162
25.83 0.0693004
26.03 -0.00845341
26.23 0.0210455
26.43 -0.0176203
26.63 0.128148
26.83 0.158364
27.03 0.311455
27.23 0.0263128
27.43 -0.010834
27.63 0.215856
27.83 0.257413
28.03 0.0332452
28.23 0.0562341
28.43 -0.0133438
28.63 0.09622
28.83 0.258594
29.03 0.0340618
29.23 0.0493717
29.43 0.386915
29.63 0.757949
29.83 0.170571
30.03 0.145466
30.23 0.165419
30.43 0.25447
30.63 0.334945
30.83 0.0562046
31.03 -0.0162672
31.23 -0.00569374
31.43 0.0576988
31.63 0.469808
31.83 0.724266
32.03 0.118991
32.23 0.0742246
32.43 0.191145
32.63 0.333741
32.83 1.18928
33.03 0.32334
33.23 0.0886812
33.43 -0.000996604
33.63 0.0123187
33.83 0.238151
34.03 0.0622164
34.23 0.0343724
34.43 0.0926437
34.63 0.0141157
34.83 0.0528072
35.03 0.126829
35.23 0.364124
35.43 0.499678
35.63 0.0963095
35.83 0.106595
36.03 0.120739
36.23 0.0514955
36.43 0.00589818
36.63 0.13287
36.83 0.836039
37.03 0.51494
37.23 0.224371
37.43 0.095503
37.63 0.061068
37.83 0.06598
38.03 0.00906066
38.23 0.106512
38.43 0.0720244
38.63 0.0204839
38.83 0.228863
39.03 0.449757
39.23 0.0725895
39.43 0.0151438
39.63 0.00493316
39.83 0.0179949
40.03 0.030764
40.23 0.081564
40.43 0.0036015
40.63 0.0109793
40.83 0.0289618
41.03 0.0738121
41.23 0.0990189
41.43 0.00719958
41.63 -0.018061
41.83 0.032367
42.03 0.0877232
42.23 -0.00541295
42.43 0.0185485
42.63 0.135823
42.83 0.241212
43.03 0.0690139
43.23 0.0715127
43.43 0.152669
43.63 0.0407437
43.83 0.0370775
44.03 -0.01989
44.23 -0.00229195
44.43 0.0469889
44.63 0.00631055
44.83 0.0265952
45.03 -0.00705782
45.23 0.0305988
45.43 0.161541
45.63 0.31535
45.83 0.124501
46.03 0.0219794
46.23 0.128028
46.43 0.2429
46.63 0.186869
46.83 0.0446406
47.03 0.115682
47.23 0.163442
47.43 0.0278456
47.63 0.0350683
47.83 0.0494562
48.03 0.118814
48.23 0.238659
48.43 0.150359
48.63 0.100031
48.83 0.177418
49.03 0.049047
49.23 0.0359957
49.43 0.0793533
49.63 0.141465
49.83 0.0650485
50.03 0.01433
50.23 0.0101522
50.43 0.0322867
50.63 0.0172638
50.83 0.153804
51.03 0.155563
51.23 0.0568234
51.43 0.0679082
51.63 0.0703076
51.83 0.0809676
52.03 0.0822817
52.23 0.0254676
52.43 -0.0069836
52.63 0.0367897
52.83 0.0751997
53.03 0.117213
53.23 0.137048
53.43 0.0684091
53.63 0.065545
53.83 0.0614456
54.03 0.0481457
54.23 -0.0169087
54.43 -0.00463103
54.63 0.0176695
54.83 0.00928696
55.03 0.0163182
55.23 0.0441637
55.43 -0.00898819
55.63 -0.00693812
55.83 0.00546482
56.03 0.0200512
56.23 -0.00493864
56.43 0.0500964
56.63 0.0159417
56.83 0.04649
57.03 0.076825
57.23 0.111225
57.43 0.198675
57.63 0.14473
57.83 -0.00735433
58.03 0.00922157
58.23 0.0215795
58.43 0.0433697
58.63 0.053816
58.83 0.0648354
59.03 0.0913557
59.23 0.0175781
59.43 -0.0133341
59.63 -0.0139354
59.83 -0.00395873
60.03 -0.00753646
60.23 -0.00545349
60.43 0.0347787
60.63 0.0555958
60.83 0.038295
61.03 0.0437037
61.23 0.00988836
61.43 0.0214327
61.63 0.00796328
61.83 -0.0103588
62.03 0.000335951
62.23 -0.00905954
62.43 0.0120345
62.63 0.0125102
62.83 0.026137
63.03 0.0127167
63.23 -0.00530022
63.43 0.00218837
63.63 0.00333307
63.795 -0.0189373