File: data/xrd/xy/2019-05-29T17_22_53.471261+00_00_LBL_H5.xy
'Id: "" Comment: "Integrate frame 060320190_02_002.gfrmwith cursor Wedge Cursor #2" Operator: "UC Berkeley" Anode: "Co" Scantype: "TwoTheta" TimePerStep: "400"
14.33 -0.0317513
14.505 -0.0305638
14.68 -0.0156069
14.855 0.0424498
15.03 -0.0120511
15.205 0.0289719
15.38 0.0437183
15.555 0.0337871
15.73 -0.0230643
15.905 -0.0133318
16.08 -0.0258736
16.255 0.0400516
16.43 0.0881963
16.605 0.0642121
16.78 0.010642
16.955 0.0418967
17.13 -0.00309728
17.305 -0.0262973
17.48 0.0108184
17.655 0.0551057
17.83 0.0106493
18.005 0.0299537
18.18 0.0618102
18.355 0.0693337
18.53 0.0312933
18.705 0.0745095
18.88 0.0833221
19.055 0.0392228
19.23 0.0504614
19.405 0.0287005
19.58 0.0212507
19.755 0.0500779
19.93 0.0282714
20.105 0.0562018
20.28 0.0385309
20.455 0.0453414
20.63 0.0646582
20.805 0.0358051
20.98 0.0354448
21.155 0.0390323
21.33 0.0145688
21.505 -0.0158506
21.68 0.0109799
21.855 -0.0105487
22.03 0.0301331
22.205 0.0089881
22.38 -0.022333
22.555 0.0258331
22.73 0.0147847
22.905 -0.018908
23.08 0.0299343
23.255 0.0544985
23.43 0.170607
23.605 0.0593337
23.78 0.0107673
23.955 0.0328677
24.13 0.031745
24.305 0.0142161
24.48 0.0155388
24.655 0.0228965
24.83 0.0358416
25.005 0.0260341
25.18 -0.00810022
25.355 0.0154227
25.53 -0.0119702
25.705 0.0237316
25.88 0.00795555
26.055 0.0205725
26.23 0.000533176
26.405 0.0232474
26.58 0.022336
26.755 0.0204649
26.93 0.0505609
27.105 0.0303199
27.28 0.0349452
27.455 0.0680324
27.63 0.0937006
27.805 0.0301973
27.98 0.0567788
28.155 0.194533
28.33 0.269661
28.505 0.10714
28.68 0.0800467
28.855 0.0493976
29.03 0.0730359
29.205 0.139378
29.38 0.115401
29.555 0.0087498
29.73 0.0316233
29.905 0.0164722
30.08 -0.0108824
30.255 0.00731244
30.43 0.00652115
30.605 0.039318
30.78 0.0388119
30.955 0.0310204
31.13 0.000931381
31.305 0.00976227
31.48 0.00280413
31.655 0.0215507
31.83 0.00871569
32.005 0.0408521
32.18 0.0183008
32.355 -0.0191002
32.53 0.0419298
32.705 0.0452148
32.88 0.0517346
33.055 0.0542931
33.23 0.116083
33.405 0.0673861
33.58 0.0582805
33.755 0.0143959
33.93 0.0553844
34.105 0.0465677
34.28 -0.0102943
34.455 0.00754457
34.63 -0.0111077
34.805 -0.00116674
34.98 0.00251858
35.155 0.00956888
35.33 -0.00160333
35.505 -0.0230706
35.68 -0.011492
35.855 0.00360473
36.03 -0.00162228
36.205 0.01305
36.38 0.0142649
36.555 0.0143922
36.73 0.0168383
36.905 0.0505783
37.08 0.127433
37.255 0.0397059
37.43 0.0168099
37.605 0.0435459
37.78 0.0870407
37.955 0.129568
38.13 0.0406596
38.305 0.023247
38.48 -0.0149689
38.655 0.0108671
38.83 -0.0174754
39.005 0.013584
39.18 0.00750017
39.355 0.0083867
39.53 -0.00572136
39.705 -0.00866028
39.88 0.0357481
40.055 0.0575867
40.23 0.0379538
40.405 0.0116003
40.58 -0.00153525
40.755 0.0221696
40.93 0.0126521
41.105 0.0094112
41.28 0.0220731
41.455 0.00814726
41.63 0.0270035
41.805 0.024042
41.98 -0.0138941
42.155 0.000516799
42.33 0.00569387
42.505 0.0336568
42.68 0.00211412
42.855 -0.00992115
43.03 0.0268238
43.205 0.0514011
43.38 -0.0121195
43.555 -0.0134073
43.73 0.0139016
43.905 0.0436335
44.08 0.0099933
44.255 0.00233621
44.43 -0.00167013
44.605 0.00499918
44.78 -0.00222922
44.955 0.0462462
45.13 0.0448178
45.305 0.0889433
45.48 0.0453997
45.655 0.0443355
45.83 0.0537437
46.005 0.105506
46.18 0.176137
46.355 0.18857
46.53 0.162466
46.705 0.135562
46.88 0.0834308
47.055 0.0327674
47.23 -0.002338
47.405 0.000983903
47.58 0.0205731
47.755 0.0939762
47.93 0.32991
48.105 0.163853
48.28 0.0497022
48.455 0.0594612
48.63 0.0779715
48.805 0.0203906
48.98 -0.00635809
49.155 0.000197757
49.33 0.0185861
49.505 0.00266745
49.68 -0.00801933
49.855 -0.000192714
50.03 0.0325253
50.205 0.0766661
50.38 0.0253324
50.555 -0.0142146
50.73 -0.0178859
50.905 -0.00421428
51.08 -0.0148802
51.255 -0.0123192
51.43 -0.0218532
51.605 0.00159011
51.78 -0.0182642
51.955 -0.0122349
52.13 -0.0060452
52.305 0.00722293
52.48 0.00908338
52.655 -0.00447063
52.83 -0.0192505
53.005 0.00148587
53.18 0.0117525
53.355 0.0132768
53.53 0.042686
53.705 0.0701241
53.88 0.0373261
54.055 0.0536193
54.23 0.0415328
54.405 0.0292793
54.58 0.0285038
54.755 0.0156448
54.93 0.0178968
55.105 -0.00839264
55.28 -0.00887449
55.455 0.00227557
55.63 0.00735865
55.805 0.0134794
55.98 0.0136722
56.155 0.0324719
56.33 0.0351274
56.505 0.0576874
56.68 0.0209953
56.855 -0.00515845
57.03 0.00913606
57.205 -0.0143499
57.38 -0.00221194
57.555 -0.00368411
57.73 0.00586132
57.905 0.0378319
58.08 0.0471541
58.255 0.225075
58.43 0.31071
58.605 0.104275
58.78 0.0295268
58.955 0.0141882
59.13 0.01828
59.305 0.00882153
59.48 0.0183892
59.655 0.031017
59.83 0.0163467
60.005 0.00983929
60.18 0.0592524
60.355 0.133494
60.53 0.0297748
60.705 0.00132755
60.88 -0.00642117
61.055 0.0047694
61.23 -0.0126468
61.405 0.00714216
61.58 0.00300274
61.755 0.0105912
61.93 0.00754317
62.105 -0.00626898
62.28 -0.0158449
62.455 -0.000453977
62.63 0.0129181
62.805 0.0114274
62.98 0.00453258
63.155 0.00709509
63.33 0.0210703
63.505 0.0262153
63.68 0.0421013
63.855 0.0190895
64.03 0.0212798
64.205 -0.00113553
64.38 0.0123642
64.555 0.00323122
64.73 -0.00954387
64.905 -0.00191604
65.08 -0.00738006
65.255 -0.00581765
65.43 -0.0174105
65.455 -0.0196303