File: data/xrd/xy/2019-06-18T20_54_55.536969+00_00_LBL_A5.xy
'Id: "" Comment: "Integrate frame 20190723_4triFMePh_03_003.gfrmwith cursor Wedge Cursor #2" Operator: "UC Berkeley" Anode: "Co" Scantype: "TwoTheta" TimePerStep: "600.002"
24.875 -0.0238926
25.045 0.040101
25.215 0.063657
25.385 -0.0116323
25.555 0.0619015
25.725 0.0578667
25.895 0.0446895
26.065 0.0568419
26.235 0.167876
26.405 0.0158921
26.575 0.00541384
26.745 0.0698713
26.915 0.0057968
27.085 0.0521728
27.255 0.0352768
27.425 0.00381152
27.595 0.00597216
27.765 0.0498984
27.935 0.0326242
28.105 0.0620137
28.275 0.0837835
28.445 -0.000540801
28.615 0.0254557
28.785 0.0247607
28.955 0.0591372
29.125 0.0637698
29.295 0.0331477
29.465 0.0739453
29.635 0.670428
29.805 0.737702
29.975 0.175616
30.145 1.55241
30.315 2.22213
30.485 0.140032
30.655 0.0186158
30.825 0.00673667
30.995 0.0264045
31.165 -0.00844728
31.335 0.00153182
31.505 0.0326234
31.675 0.00776381
31.845 0.0143964
32.015 0.0142564
32.185 0.0134839
32.355 0.0167314
32.525 0.00796774
32.695 0.0283931
32.865 0.00784308
33.035 0.00797132
33.205 0.0257436
33.375 0.0281625
33.545 0.0351392
33.715 0.0410026
33.885 0.0334131
34.055 0.00606405
34.225 -0.00821545
34.395 0.0405548
34.565 0.092132
34.735 0.0614352
34.905 0.0206237
35.075 0.0670417
35.245 -0.00172207
35.415 0.0307717
35.585 0.0141247
35.755 0.0470346
35.925 0.0134069
36.095 0.0173215
36.265 0.0545381
36.435 0.0235024
36.605 0.0165785
36.775 -0.0187459
36.945 0.00699232
37.115 0.00850229
37.285 -0.000253743
37.455 0.00791833
37.625 0.0124805
37.795 0.00841762
37.965 -0.00695549
38.135 -0.00129937
38.305 0.00485032
38.475 0.000173421
38.645 0.013556
38.815 0.0103014
38.985 0.0155151
39.155 0.0111293
39.325 0.0117338
39.495 0.0585152
39.665 0.122635
39.835 0.440742
40.005 2.35066
40.175 2.10287
40.345 0.319539
40.515 0.0849396
40.685 0.0073176
40.855 0.00907845
41.025 -0.00600736
41.195 -0.0149771
41.365 0.00671487
41.535 0.0200228
41.705 0.0111194
41.875 -0.00612331
42.045 0.0190344
42.215 0.00710374
42.385 -0.00778899
42.555 -0.00769505
42.725 0.000678048
42.895 0.0222547
43.065 0.0299654
43.235 -0.014532
43.405 0.0490292
43.575 -0.00691649
43.745 0.0232748
43.915 0.0365697
44.085 0.0321761
44.255 0.0599218
44.425 0.0557619
44.595 0.0287283
44.765 0.0706377
44.935 0.305674
45.105 2.69528
45.275 3.39765
45.445 0.719504
45.615 0.0584376
45.785 0.000295292
45.955 0.0316838
46.125 0.332737
46.295 0.708291
46.465 0.409675
46.635 0.0472491
46.805 -0.00703859
46.975 0.0304351
47.145 0.00217691
47.315 0.0130236
47.485 0.0462631
47.655 0.0246138
47.825 -0.00203011
47.995 -0.00343808
48.165 0.0059414
48.335 0.00614265
48.505 0.00807631
48.675 0.0804516
48.845 0.222367
49.015 0.146095
49.185 0.0248765
49.355 0.0150233
49.525 -0.00108475
49.695 0.0106487
49.865 -0.0104232
50.035 0.00445061
50.205 -0.0050983
50.375 0.0112084
50.545 -0.00960731
50.715 0.0368754
50.885 0.0091669
51.055 0.00984123
51.225 0.00648357
51.395 0.00863414
51.565 -0.0025014
51.735 0.0325402
51.905 0.0125293
52.075 -0.0025478
52.245 0.00990299
52.415 0.0184624
52.585 0.0468629
52.755 0.213451
52.925 0.840925
53.095 1.1239
53.265 0.541151
53.435 0.0856824
53.605 0.0162692
53.775 -0.00171077
53.945 0.00344539
54.115 0.00341005
54.285 0.00377327
54.455 0.0140175
54.625 0.00701913
54.795 0.00198697
54.965 0.00457775
55.135 0.0231396
55.305 0.00275952
55.475 -0.000234612
55.645 -9.95708e-05
55.815 0.00835926
55.985 0.100853
56.155 0.232285
56.325 0.308413
56.495 0.259169
56.665 0.0553636
56.835 0.0102533
57.005 0.0185945
57.175 0.0277143
57.345 0.0129152
57.515 0.00630173
57.685 0.0249214
57.855 0.0197428
58.025 -0.00481848
58.195 0.0165796
58.365 0.00874965
58.535 0.0390378
58.705 0.0295095
58.875 0.0298836
59.045 0.052293
59.215 0.0219924
59.385 0.019055
59.555 0.0142097
59.725 0.00385878
59.895 0.0254036
60.065 0.0367821
60.235 0.0121785
60.405 0.0399747
60.575 0.0302105
60.745 0.0101526
60.915 0.0329651
61.085 0.0351433
61.255 0.112944
61.425 0.629289
61.595 1.61804
61.765 1.43485
61.935 0.497329
62.105 0.0745778
62.275 0.0223556
62.445 0.0181891
62.615 0.110672
62.785 0.259794
62.955 0.436206
63.125 0.215438
63.295 0.0404548
63.465 -0.0104211
63.635 0.0253071
63.805 -0.005471
63.975 0.0141539
64.145 0.015065
64.315 -0.00712003
64.485 0.0306847
64.655 0.00943738
64.825 0.0164002
64.995 0.0383703
65.165 0.0219579
65.335 0.0304134
65.505 0.0232792
65.675 0.0104748
65.845 0.0265927
66.015 0.022698
66.185 0.00576289
66.355 0.0660374
66.525 0.242053
66.695 0.42922
66.865 0.435927
67.035 0.192887
67.205 0.0578739
67.375 0.00549503
67.545 0.0107774
67.715 0.00575643
67.885 -0.00697324
68.055 0.0726827
68.225 0.147742
68.395 0.0963536
68.565 0.0444621
68.735 0.014867
68.905 -0.00163016
69.075 0.00677517
69.245 0.00624894
69.415 0.0224985
69.585 0.0225116
69.755 0.00215287
69.925 0.006442
70.095 0.00191682
70.265 -0.00111448
70.435 0.00430465
70.605 0.0124573
70.775 -0.0139059
70.945 0.0272449
71.115 0.0121506
71.285 0.0289868
71.455 -0.00436944
71.625 0.0139928
71.795 0.0303713
71.965 0.00209851
72.135 -2.94917e-05
72.305 0.0199767
72.475 -0.00776755
72.645 0.0128296
72.815 0.0477504
72.985 0.160362
73.155 0.143603
73.325 0.0944228
73.495 -0.000471292
73.665 0.00444784
73.835 -0.00586401
74.005 0.0138214
74.175 0.0255284
74.345 0.00151959
74.515 0.0279625
74.685 0.0205094
74.855 0.0187659
75.025 0.00376083
75.18 -0.0147496