File: data/xrd/xy/2019-07-12T13_34_37.895617+00_00_LBL_D7.xy
'Id: "" Comment: "Integrate frame 20190719_4fluorophenethyl_02_002.gfrmwith cursor Wedge Cursor #2" Operator: "UC Berkeley" Anode: "Co" Scantype: "TwoTheta" TimePerStep: "600"
13.955 -0.0256105
14.16 0.0629087
14.365 0.141936
14.57 1.0711
14.775 1.23512
14.98 0.042319
15.185 0.0828987
15.39 -0.0215036
15.595 0.01646
15.8 0.0792023
16.005 0.0541517
16.21 0.0045751
16.415 0.0315929
16.62 0.0898319
16.825 0.160651
17.03 0.104911
17.235 0.108606
17.44 0.0534261
17.645 0.0639686
17.85 0.0675916
18.055 0.0193126
18.26 0.00132658
18.465 0.367117
18.67 2.8041
18.875 0.154292
19.08 -0.00898982
19.285 0.0059361
19.49 0.0421512
19.695 -0.000325954
19.9 0.0282286
20.105 0.105826
20.31 0.0109247
20.515 0.0167921
20.72 0.00717896
20.925 0.0793711
21.13 0.0768331
21.335 0.0464298
21.54 0.0731366
21.745 0.0512858
21.95 0.0503761
22.155 0.0845585
22.36 0.0613816
22.565 0.118919
22.77 0.0645371
22.975 0.051377
23.18 0.0258219
23.385 0.0111789
23.59 0.0724872
23.795 0.0883558
24 0.198017
24.205 -0.00178114
24.41 0.020008
24.615 0.0528385
24.82 1.38201
25.025 9.87467
25.23 0.255202
25.435 0.0761634
25.64 0.0400512
25.845 0.0148613
26.05 0.0117915
26.255 0.00941637
26.46 0.0643507
26.665 0.0685384
26.87 0.0122508
27.075 0.0843182
27.28 0.109048
27.485 0.034048
27.69 0.0868986
27.895 0.0728866
28.1 0.0343234
28.305 0.053095
28.51 0.0534567
28.715 0.0785037
28.92 0.0563553
29.125 0.0358205
29.33 0.0401655
29.535 0.187441
29.74 0.386754
29.945 0.0801114
30.15 0.169991
30.355 0.109894
30.56 0.0637536
30.765 -0.00257561
30.97 0.109191
31.175 0.368047
31.38 11.7588
31.585 1.30491
31.79 0.530196
31.995 0.102832
32.2 -0.00290133
32.405 0.0061528
32.61 -0.0112664
32.815 -0.0167388
33.02 0.020663
33.225 0.0406646
33.43 0.036391
33.635 0.0237116
33.84 0.37957
34.045 0.402854
34.25 0.185294
34.455 0.0587471
34.66 0.195004
34.865 0.0451928
35.07 0.0243804
35.275 0.0125423
35.48 0.0045143
35.685 -0.0210534
35.89 0.00346477
36.095 0.0307128
36.3 0.0154343
36.505 0.00217363
36.71 0.0525417
36.915 0.000486257
37.12 -0.00614605
37.325 0.0486805
37.53 0.249882
37.735 0.35672
37.94 1.57265
38.145 0.178155
38.35 0.11615
38.555 0.04339
38.76 0.00703636
38.965 -0.0181648
39.17 -0.016438
39.375 0.062382
39.58 0.0310269
39.785 -0.003228
39.99 0.124228
40.195 0.0193234
40.4 -0.0160946
40.605 0.00456388
40.81 0.0204371
41.015 0.00269592
41.22 0.0247144
41.425 0.00989968
41.63 0.0267924
41.835 0.0267106
42.04 0.0118773
42.245 0.021442
42.45 -0.000712952
42.655 0.0436637
42.86 0.0147735
43.065 -0.0120652
43.27 0.0100673
43.475 0.0192148
43.68 -0.00255623
43.885 0.0408457
44.09 0.0519725
44.295 0.0447534
44.5 0.00423928
44.705 0.18085
44.91 0.349495
45.115 1.87914
45.32 1.0653
45.525 0.0797703
45.73 0.0024922
45.935 0.0897783
46.14 0.493001
46.345 0.660149
46.55 0.098154
46.755 0.0089277
46.96 0.0267539
47.165 0.0415717
47.37 0.049424
47.575 -0.0190601
47.78 0.00630789
47.985 0.0171445
48.19 0.000215019
48.395 -0.0155506
48.6 0.0890149
48.805 0.219694
49.01 0.215188
49.215 0.299584
49.42 0.052254
49.625 0.026892
49.83 0.0180515
50.035 0.0013425
50.24 0.0555338
50.445 0.0455981
50.65 0.00262589
50.855 -0.00456655
51.06 0.0116987
51.265 0.0529737
51.47 0.0598033
51.675 0.0433926
51.88 0.000564009
52.085 0.0069382
52.29 -0.0123637
52.495 -0.00283271
52.7 0.0069067
52.905 0.0138331
53.11 0.0476287
53.315 -0.000187358
53.52 -0.00991736
53.725 0.0151871
53.93 0.00348717
54.135 0.0763095
54.34 -0.00736831
54.545 0.0239792
54.75 -0.00212897
54.955 0.00969858
55.16 0.0251362
55.365 0.0370823
55.57 0.0250358
55.775 -0.00229317
55.98 -0.00560541
56.185 0.000905818
56.39 0.0588819
56.595 0.00540221
56.8 -0.006922
57.005 0.012858
57.21 0.0255215
57.415 0.0150852
57.62 0.00926446
57.825 -0.0181271
58.03 0.00572563
58.235 0.0116516
58.44 0.00890735
58.645 0.0341965
58.85 0.0247045
59.055 0.0522565
59.26 0.0455067
59.465 0.0323825
59.67 0.00787795
59.875 0.0041055
60.08 -0.0112961
60.285 -0.0127078
60.49 3.15087e-05
60.695 0.00343686
60.9 -0.00774906
61.105 0.0188394
61.31 0.247978
61.515 0.700963
61.72 0.779906
61.925 0.208062
62.13 -0.0132157
62.335 -0.0118056
62.54 0.0040896
62.745 -0.00176925
62.95 0.0260919
63.155 0.0116624
63.36 0.00535222
63.565 -0.008651
63.77 0.0411424
63.975 0.0233909
64.18 0.00700565
64.385 0.021922
64.59 0.0156421
64.795 0.0320765
65 0.0189079
65.205 0.0120034
65.41 0.000741134
65.615 0.0182845
65.82 0.0227896
66.025 0.0321699
66.23 0.0467418
66.435 0.192874
66.64 0.328085
66.845 0.257489
67.05 0.0859509
67.255 -0.00176392
67.46 -0.0128085
67.665 0.0397456
67.87 0.0256649
68.075 0.0228774
68.28 0.0276635
68.485 0.0284443
68.69 -0.000401914
68.895 0.0221555
69.1 0.0354006
69.305 -0.0124348
69.51 0.0163284
69.715 -0.00823183
69.92 0.000566868
70.125 0.0166038
70.33 0.00136094
70.535 0.00709063
70.74 0.0157366
70.945 0.0130187
71.15 0.0463146
71.355 0.000169825
71.56 0.065304
71.765 0.0203734
71.97 0.0338485
72.175 0.00606959
72.38 -0.00304447
72.585 -0.0135368
72.79 0.0354515
72.995 0.0312558
73.2 0.0245785
73.405 0.0428711
73.61 0.0152792
73.815 0.00506072
74.02 0.0290735
74.225 0.0198029
74.43 0.0126402
74.635 -0.00496692
74.84 -0.00595135
74.885 -0.0162435