File: data/xrd/xy/2019-07-01T19_39_31.550325+00_00_LBL_A1.xy
'Id: "" Comment: "Integrate frame 20190716_acnh3_nprop_4flph_01_002.gfrmwith cursor Wedge Cursor #1" Operator: "" Anode: "Co" Scantype: "TwoTheta" TimePerStep: "450"
15.555 -0.0300108
15.755 0.0400896
15.955 0.0811146
16.155 0.050292
16.355 0.0569794
16.555 0.00576617
16.755 0.0302638
16.955 0.0740336
17.155 0.0922785
17.355 0.0177953
17.555 0.00119634
17.755 0.091627
17.955 0.0361676
18.155 0.109541
18.355 0.109003
18.555 -0.00593751
18.755 0.0366181
18.955 0.0687737
19.155 0.072115
19.355 0.0393274
19.555 0.0445344
19.755 0.0414345
19.955 0.0739403
20.155 0.0629476
20.355 0.0481135
20.555 0.0163179
20.755 0.0342919
20.955 0.0688239
21.155 0.0574335
21.355 0.104184
21.555 0.0515666
21.755 0.0806079
21.955 0.00319789
22.155 0.0200513
22.355 0.0323758
22.555 -0.0113054
22.755 0.356297
22.955 0.161675
23.155 0.00273559
23.355 -0.00516855
23.555 0.0477632
23.755 0.00848497
23.955 0.018817
24.155 -0.018263
24.355 -0.00528656
24.555 0.0119173
24.755 -0.000945487
24.955 0.0488519
25.155 0.0113797
25.355 0.0530751
25.555 0.0100402
25.755 0.025029
25.955 0.0150023
26.155 0.0197316
26.355 -0.0101723
26.555 0.025039
26.755 0.0505421
26.955 -0.0102599
27.155 0.054691
27.355 0.0178773
27.555 0.028214
27.755 0.0413313
27.955 0.0826096
28.155 0.0472647
28.355 0.0311443
28.555 0.0124806
28.755 0.0216503
28.955 0.145405
29.155 0.0599167
29.355 1.71037
29.555 3.559
29.755 0.110206
29.955 0.0426943
30.155 0.0574916
30.355 -0.0139956
30.555 -0.0276755
30.755 0.0795823
30.955 0.0111152
31.155 0.00371326
31.355 0.0155131
31.555 0.0233224
31.755 0.0119275
31.955 -0.00103941
32.155 0.00641513
32.355 0.0296342
32.555 -0.010302
32.755 0.0146608
32.955 -0.00492748
33.155 0.032732
33.355 0.0309434
33.555 -0.00939721
33.755 0.00672948
33.955 -0.00178625
34.155 0.00208061
34.355 0.0269753
34.555 0.302579
34.755 0.134144
34.955 0.0967821
35.155 0.837825
35.355 0.292693
35.555 0.0177512
35.755 -0.0161289
35.955 0.0319876
36.155 0.0168881
36.355 0.0140554
36.555 -0.0092206
36.755 0.00643188
36.955 0.117797
37.155 0.585509
37.355 0.157312
37.555 0.269936
37.755 0.0760241
37.955 -0.00957872
38.155 0.0213962
38.355 -0.0116825
38.555 0.00556289
38.755 -0.0113815
38.955 -0.0164074
39.155 0.0303789
39.355 -0.0161538
39.555 -0.00677568
39.755 0.0204183
39.955 0.105382
40.155 0.326891
40.355 0.0391687
40.555 0.0279566
40.755 0.0220153
40.955 0.0336664
41.155 0.0471205
41.355 -0.0134388
41.555 0.00712494
41.755 0.0045323
41.955 -0.000901767
42.155 0.000302758
42.355 -0.00605462
42.555 0.0159802
42.755 -0.001828
42.955 0.0333566
43.155 0.0243
43.355 -0.00562787
43.555 -0.00673354
43.755 0.0158629
43.955 0.218294
44.155 0.221197
44.355 0.0338769
44.555 0.0306097
44.755 0.00377289
44.955 0.0251077
45.155 0.00290698
45.355 0.0238172
45.555 -0.000549611
45.755 0.0403131
45.955 -0.0176248
46.155 0.0330129
46.355 0.0929077
46.555 0.626674
46.755 0.945022
46.955 0.126271
47.155 0.0217249
47.355 -0.0177166
47.555 0.0875424
47.755 0.122485
47.955 0.0220403
48.155 0.122063
48.355 0.34309
48.555 0.355852
48.755 0.78547
48.955 0.106139
49.155 -0.00366631
49.355 0.00893505
49.555 0.0310992
49.755 0.00181718
49.955 -0.00630337
50.155 -0.00492272
50.355 0.0509295
50.555 0.141704
50.755 0.0265022
50.955 -0.00575488
51.155 0.000562173
51.355 0.000294419
51.555 -0.00892719
51.755 -0.0144414
51.955 0.00703465
52.155 -0.02157
52.355 -0.00369981
52.555 7.78809e-05
52.755 -0.00895736
52.955 0.0127906
53.155 -0.00640581
53.355 -0.00555559
53.555 0.0210625
53.755 -0.00857002
53.955 0.0109619
54.155 0.0277662
54.355 0.00432174
54.555 0.0234359
54.755 0.00599548
54.955 -0.00667191
55.155 -0.0110337
55.355 -0.0142099
55.555 -0.0174151
55.755 0.0742136
55.955 0.191735
56.155 0.367618
56.355 0.159973
56.555 -0.0183934
56.755 0.00159168
56.955 -0.00465463
57.155 0.0111599
57.355 0.00324922
57.555 -0.00926865
57.755 0.00452601
57.955 0.00803478
58.155 -0.00491466
58.355 0.0384738
58.555 0.00520004
58.755 -0.00252015
58.955 -0.00394595
59.155 -0.00802061
59.355 0.0310769
59.555 0.0825209
59.755 0.18961
59.955 0.0967511
60.155 0.00745642
60.355 0.000732539
60.555 0.0119274
60.755 0.0204208
60.955 0.0490783
61.155 0.130281
61.355 0.0634463
61.555 0.0358527
61.755 0.013354
61.955 7.41429e-05
62.155 0.00175162
62.355 0.0242356
62.555 0.0209662
62.755 0.0302298
62.955 -0.00395424
63.155 -0.0116631
63.355 -0.00647441
63.555 0.0493091
63.755 0.0127915
63.955 0.006068
64.155 0.00371001
64.355 -0.00285755
64.555 -0.0108905
64.755 0.00509124
64.955 0.0453277
65.155 0.00928814
65.355 -0.00806807
65.555 0.0167514
65.755 0.0297406
65.955 0.0204418
66.155 0.0299731
66.355 0.0265682
66.555 0.00668508
66.755 0.00468842
66.955 0.0150136
67.155 0.0112159
67.355 -0.00743747
67.555 -0.000142425
67.755 0.0156494
67.955 0.0355915
68.155 0.0219774
68.355 0.0138334
68.555 0.01136
68.755 0.000590506
68.955 0.0530102
69.155 0.153847
69.355 0.156773
69.555 0.0993103
69.755 0.0455347
69.955 0.00409682
70.155 0.0186354
70.355 0.00868703
70.555 -0.0109239
70.755 0.0200083
70.955 0.0303748
71.155 0.00764152
71.355 0.0249013
71.555 0.0127749
71.755 -0.00385692
71.955 -0.00568014
72.155 -0.00486658
72.355 -0.00630296
72.555 -0.000557601
72.755 0.0092847
72.955 0.0710449
73.155 0.0872014
73.355 -0.00746996
73.555 -0.00261621
73.755 -0.00554169
73.955 -0.0085219
74.055 -0.0180175