File: data/xrd/xy/2019-08-08T16_56_58.410591+00_00_LBL_E3.xy
'Id: "" Comment: "Integrate frame 4fluorobenzyl_01_001.gfrmwith cursor Wedge Cursor #1" Operator: "UC Berkeley" Anode: "Co" Scantype: "TwoTheta" TimePerStep: "500"
13.71 -0.0271592
13.91 0.0145551
14.11 0.032836
14.31 0.0126171
14.51 0.0241136
14.71 0.0534627
14.91 0.0953751
15.11 0.0663206
15.31 0.0639305
15.51 0.0387276
15.71 0.052222
15.91 0.0220901
16.11 0.0459686
16.31 0.0390372
16.51 0.000287026
16.71 0.0320173
16.91 0.0527033
17.11 0.0354754
17.31 0.0536842
17.51 0.0536501
17.71 0.00456498
17.91 0.0127404
18.11 0.0158506
18.31 0.03747
18.51 0.0701006
18.71 0.00479575
18.91 0.0409065
19.11 0.0197678
19.31 0.0552067
19.51 -0.00136047
19.71 0.0111897
19.91 0.0356352
20.11 0.00796167
20.31 0.018804
20.51 0.0158797
20.71 0.0385131
20.91 0.0154128
21.11 0.0482286
21.31 0.0682101
21.51 0.0398692
21.71 0.0261046
21.91 0.0122828
22.11 0.0101306
22.31 0.00410915
22.51 0.0114741
22.71 0.0278847
22.91 -0.000512953
23.11 0.0274509
23.31 0.0376312
23.51 0.226793
23.71 0.141227
23.91 0.0237806
24.11 0.0274
24.31 0.0207778
24.51 0.0179722
24.71 0.0274852
24.91 0.0306042
25.11 0.0292189
25.31 0.0749614
25.51 0.0464356
25.71 0.007891
25.91 -0.0104263
26.11 0.0355653
26.31 0.0238193
26.51 0.0135132
26.71 0.0140961
26.91 0.00247626
27.11 0.0294011
27.31 0.0286722
27.51 0.0151257
27.71 0.0325539
27.91 0.0408751
28.11 0.0340287
28.31 0.0230993
28.51 0.0351603
28.71 0.157666
28.91 0.0721616
29.11 0.0275447
29.31 0.0414898
29.51 0.0152285
29.71 0.0414311
29.91 0.212858
30.11 2.76449
30.31 0.538901
30.51 0.069688
30.71 0.0627636
30.91 0.0607909
31.11 -0.0133955
31.31 0.000681038
31.51 0.0210801
31.71 0.00472235
31.91 0.0134513
32.11 0.0298508
32.31 -0.0185146
32.51 0.0223656
32.71 0.0259939
32.91 0.0224295
33.11 -0.00686968
33.31 -0.0222707
33.51 0.0186318
33.71 0.00940496
33.91 -0.00791817
34.11 -0.00321327
34.31 0.00712945
34.51 0.012365
34.71 0.313893
34.91 0.387147
35.11 0.0272041
35.31 -0.022324
35.51 0.00698934
35.71 -0.000596572
35.91 0.0380995
36.11 0.247042
36.31 1.5658
36.51 0.59307
36.71 0.0295961
36.91 0.0117743
37.11 0.0126947
37.31 0.106381
37.51 0.723734
37.71 0.212523
37.91 0.023324
38.11 0.000732028
38.31 0.0282414
38.51 0.0978701
38.71 0.10567
38.91 0.0163811
39.11 0.0127742
39.31 0.0290396
39.51 0.0408143
39.71 -0.00161069
39.91 0.0024533
40.11 0.00446989
40.31 -0.012349
40.51 0.00260942
40.71 0.0325043
40.91 0.0428499
41.11 0.0261589
41.31 0.0980253
41.51 0.214046
41.71 0.00386222
41.91 0.0205231
42.11 0.0142521
42.31 0.0108167
42.51 0.0112897
42.71 0.0107201
42.91 0.0261702
43.11 0.00736502
43.31 0.0395407
43.51 0.0139623
43.71 -0.00613163
43.91 -0.012202
44.11 0.00233564
44.31 -0.00884812
44.51 0.00850005
44.71 0.135233
44.91 0.104662
45.11 0.0152978
45.31 0.0237188
45.51 0.00620254
45.71 -0.00325172
45.91 0.0131974
46.11 0.00362456
46.31 0.00749952
46.51 0.000286252
46.71 0.00318808
46.91 0.0175626
47.11 0.0277972
47.31 0.0497896
47.51 0.286395
47.71 0.363499
47.91 0.493242
48.11 4.91508
48.31 3.52171
48.51 0.356459
48.71 0.107091
48.91 0.150714
49.11 0.275098
49.31 0.129568
49.51 0.0224015
49.71 0.0259229
49.91 0.0406807
50.11 0.216587
50.31 0.889563
50.51 0.341437
50.71 0.0281129
50.91 1.02543e-05
51.11 0.00845405
51.31 0.000655261
51.51 0.014667
51.71 0.0778587
51.91 0.190475
52.11 0.148098
52.31 0.0611178
52.51 -0.00812504
52.71 -0.00307587
52.91 0.00347724
53.11 -0.00489596
53.31 0.00916362
53.51 0.0399603
53.71 0.0862637
53.91 0.159316
54.11 0.0438765
54.31 0.0195954
54.51 0.0180238
54.71 -0.0104478
54.91 0.00997755
55.11 0.0168141
55.31 0.0100932
55.51 -0.0100491
55.71 -0.0103139
55.91 0.0077265
56.11 -0.0100181
56.31 -0.00907596
56.51 0.00410966
56.71 0.00447021
56.91 0.0244961
57.11 0.06119
57.31 0.0462107
57.51 0.0453329
57.71 0.127125
57.91 0.439746
58.11 0.34235
58.31 0.0555156
58.51 0.0268228
58.71 0.00670046
58.91 -0.00446587
59.11 -0.000328077
59.31 0.00716204
59.51 0.00402381
59.71 0.0133608
59.91 0.00463341
60.11 -0.00757539
60.31 -0.0119086
60.51 0.0112324
60.71 -0.00120714
60.91 0.00852212
61.11 0.0200911
61.31 0.0132318
61.51 0.0808621
61.71 0.285894
61.91 0.563027
62.11 0.136835
62.31 0.0277528
62.51 0.0894774
62.71 0.140366
62.91 0.0625779
63.11 0.011847
63.31 0.0291501
63.51 0.0172732
63.71 0.0203591
63.91 0.00265791
64.11 -0.00730201
64.31 0.00975572
64.51 0.004247
64.71 0.0407873
64.91 0.09465
65.11 0.0872807
65.31 0.0372969
65.51 0.0426614
65.71 0.0170968
65.91 0.0071752
66.11 0.00359306
66.31 0.00226117
66.51 -0.0106519
66.71 0.00437535
66.91 0.00513537
67.11 0.00189481
67.31 0.0134328
67.51 9.78069e-05
67.71 0.0277701
67.91 0.0512472
68.11 0.0527468
68.31 0.034276
68.51 0.00656888
68.71 0.00726955
68.91 0.00243071
69.11 0.00150383
69.31 0.00833097
69.51 0.00274676
69.71 -0.0087252
69.91 0.0309259
70.11 0.0474764
70.31 0.140418
70.51 0.0372166
70.71 0.0229808
70.91 0.0524597
71.11 0.0985172
71.31 0.156276
71.51 0.1054
71.71 0.0325816
71.91 0.0204861
72.11 -0.00624113
72.31 0.00786725
72.51 0.000402211
72.71 -0.00830033
72.725 -0.0162294