File: data/xrd/xy/2019-05-23TO2_12_25.720560+00_00_LBL_B5.xy
'Id: "" Comment: "Integrate frame 06062019_neo_Pentyl_05_002.gfrmwith cursor Wedge Cursor #2" Operator: "UC Berkeley" Anode: "Co" Scantype: "TwoTheta" TimePerStep: "600"
14.29 -0.0256896
14.465 -0.0140132
14.64 0.015209
14.815 0.00124083
14.99 0.0132215
15.165 0.0118545
15.34 0.0276932
15.515 0.0117793
15.69 -0.0244118
15.865 -0.0086594
16.04 0.0219299
16.215 0.0287761
16.39 0.0106003
16.565 0.0516642
16.74 0.0254938
16.915 0.0114192
17.09 0.0595011
17.265 0.0231302
17.44 0.00721427
17.615 0.0307586
17.79 0.0089931
17.965 -0.0100451
18.14 0.0216427
18.315 -0.0125262
18.49 0.0679601
18.665 -0.00731633
18.84 0.0365784
19.015 0.0126963
19.19 -0.0107575
19.365 0.00729492
19.54 0.0215374
19.715 0.0180266
19.89 -0.0174068
20.065 -0.00352222
20.24 0.000730628
20.415 0.0101864
20.59 0.00725056
20.765 0.00856933
20.94 0.00404136
21.115 0.0153098
21.29 0.0105347
21.465 -0.00754154
21.64 0.0490555
21.815 0.00610808
21.99 0.0200146
22.165 0.0645977
22.34 0.104243
22.515 0.205099
22.69 0.0604181
22.865 0.0662077
23.04 0.0715994
23.215 -0.0236723
23.39 0.0216395
23.565 -0.000967907
23.74 0.0356745
23.915 0.0445768
24.09 0.114297
24.265 0.118042
24.44 0.00821405
24.615 0.0265238
24.79 -0.00519402
24.965 0.0189697
25.14 0.0193896
25.315 0.000733435
25.49 0.0128337
25.665 0.0315454
25.84 0.029301
26.015 0.0134366
26.19 0.0601956
26.365 0.0202844
26.54 0.0102658
26.715 0.00563418
26.89 0.00338796
27.065 0.0323518
27.24 0.0575027
27.415 0.127042
27.59 0.0556861
27.765 0.0334591
27.94 0.0180832
28.115 0.0561585
28.29 0.112792
28.465 0.0557172
28.64 0.123198
28.815 0.0464741
28.99 0.00656211
29.165 0.0080139
29.34 -0.0019875
29.515 0.0478637
29.69 0.0801852
29.865 0.334881
30.04 2.13836
30.215 1.21834
30.39 0.458562
30.565 -0.00786508
30.74 0.0099415
30.915 0.132753
31.09 0.0667426
31.265 0.0195542
31.44 0.0807276
31.615 -0.0106557
31.79 0.0911093
31.965 0.0959402
32.14 0.0429651
32.315 0.381871
32.49 0.721617
32.665 0.241956
32.84 0.282828
33.015 0.191896
33.19 0.0758174
33.365 -0.00642407
33.54 0.196414
33.715 0.121555
33.89 0.171939
34.065 0.163853
34.24 0.107007
34.415 0.327278
34.59 0.101711
34.765 -0.0122266
34.94 0.155198
35.115 0.214134
35.29 0.0312983
35.465 0.00308985
35.64 0.02541
35.815 0.121382
35.99 0.212711
36.165 0.218179
36.34 0.0154542
36.515 -0.00230376
36.69 0.0156111
36.865 0.391186
37.04 0.170244
37.215 0.0255459
37.39 0.0364733
37.565 0.134493
37.74 0.466091
37.915 0.432173
38.09 0.10052
38.265 -0.00114368
38.44 0.0281906
38.615 0.0395729
38.79 0.0235282
38.965 0.015265
39.14 0.00287088
39.315 0.067307
39.49 0.0373923
39.665 0.0484539
39.84 0.174235
40.015 0.127935
40.19 0.0157239
40.365 0.0930492
40.54 0.071226
40.715 0.0195577
40.89 0.162873
41.065 0.109255
41.24 0.15287
41.415 0.0416613
41.59 0.0623423
41.765 0.123983
41.94 0.0276581
42.115 0.0092578
42.29 -0.0146342
42.465 -0.00347265
42.64 0.0348389
42.815 0.0509204
42.99 0.0449995
43.165 0.0318902
43.34 0.0157989
43.515 0.0300467
43.69 0.0247363
43.865 0.00569588
44.04 0.0727357
44.215 0.0475798
44.39 -0.00620088
44.565 0.0293571
44.74 0.142472
44.915 0.20772
45.09 0.247446
45.265 0.085674
45.44 0.0261928
45.615 0.185169
45.79 0.139377
45.965 0.0172422
46.14 -0.00560053
46.315 0.000593276
46.49 0.00924399
46.665 0.0849127
46.84 0.0999544
47.015 0.103492
47.19 0.0488918
47.365 0.0706967
47.54 0.142542
47.715 0.0732122
47.89 0.0643388
48.065 0.0628422
48.24 -0.00881641
48.415 -0.00508387
48.59 0.0063426
48.765 0.00183132
48.94 0.00568098
49.115 0.00214873
49.29 0.021281
49.465 0.0685869
49.64 0.0295059
49.815 0.00525767
49.99 0.00333175
50.165 0.0324425
50.34 0.0407028
50.515 0.0252194
50.69 0.095123
50.865 0.224367
51.04 0.10778
51.215 0.0208495
51.39 0.00144098
51.565 0.00448795
51.74 -0.000367782
51.915 0.0104212
52.09 0.0194665
52.265 0.0283439
52.44 0.0278367
52.615 0.02812
52.79 0.0114722
52.965 0.0283195
53.14 0.0370344
53.315 0.0843647
53.49 0.0614747
53.665 0.0442727
53.84 0.0286501
54.015 0.0366148
54.19 0.0225326
54.365 0.0349482
54.54 -0.00101805
54.715 -0.000720393
54.89 -0.00897457
55.065 0.0113285
55.24 0.0146435
55.415 0.00481886
55.59 0.0115446
55.765 0.00970756
55.94 0.0236276
56.115 0.0525441
56.29 0.0639877
56.465 0.0332821
56.64 0.0624318
56.815 0.0249219
56.99 0.0138955
57.165 0.00358397
57.34 0.00537484
57.515 -0.00640959
57.69 -0.00279639
57.865 0.0237849
58.04 0.0173368
58.215 0.0212512
58.39 0.0417974
58.565 0.00490616
58.74 0.00194751
58.915 0.0140832
59.09 0.0128921
59.265 0.105511
59.44 0.357264
59.615 0.0473282
59.79 -0.0097028
59.965 -0.000523093
60.14 -0.00610281
60.315 -0.00288577
60.49 0.0153727
60.665 0.0045532
60.84 0.00174786
61.015 0.0139374
61.19 0.00436468
61.365 -0.00597267
61.54 -0.00778487
61.715 -0.00520862
61.89 0.00804529
62.065 0.0275902
62.24 0.0500488
62.415 0.0355281
62.59 0.0272673
62.765 0.00627835
62.94 -0.00684737
63.115 -0.0131146
63.29 -0.0014529
63.465 -0.00360729
63.64 0.0106123
63.815 0.0229165
63.99 0.00997346
64.165 0.0148785
64.34 0.0105947
64.515 0.00654223
64.69 0.00398356
64.865 0.0199407
65.04 0.0156093
65.215 -0.00665384
65.39 0.000627241
65.565 0.00378274
65.74 0.00626814
65.915 -0.00955614
65.93 -0.0152704