File: data/xrd/xy/2019-08-02T14_45_54.346271+00_00_LBL_A2.xy
'Id: "" Comment: "Integrate frame 20190806_tbutyl_phenylnh30_03_002.gfrmwith cursor Wedge Cursor #2" Operator: "UC Berkeley" Anode: "Co" Scantype: "TwoTheta" TimePerStep: "1200"
15.61 -0.0175295
15.81 0.0190656
16.01 0.0421735
16.21 0.0425255
16.41 0.0470052
16.61 -0.00488093
16.81 0.0325205
17.01 0.0353584
17.21 0.0216064
17.41 0.0286453
17.61 0.0586827
17.81 0.0516972
18.01 0.0374263
18.21 0.0867804
18.41 0.0372283
18.61 0.0346842
18.81 0.0178232
19.01 0.0199447
19.21 0.0326898
19.41 0.00813731
19.61 0.0162023
19.81 0.0513264
20.01 0.0270148
20.21 -0.00689149
20.41 0.0449537
20.61 0.0468894
20.81 0.0557407
21.01 0.0202647
21.21 0.0313897
21.41 0.212608
21.61 0.366371
21.81 0.0202343
22.01 0.0380037
22.21 0.0237612
22.41 0.0342402
22.61 0.0177712
22.81 0.0189507
23.01 0.0325471
23.21 0.0337061
23.41 0.0243823
23.61 0.00623671
23.81 0.0369548
24.01 0.0228915
24.21 0.0443354
24.41 0.0250221
24.61 0.0402113
24.81 0.009478
25.01 0.0920272
25.21 0.178812
25.41 0.0348002
25.61 0.0309881
25.81 0.0544103
26.01 0.118256
26.21 0.139149
26.41 -0.00859814
26.61 -0.00602823
26.81 0.0131026
27.01 0.0221525
27.21 0.0616208
27.41 0.514806
27.61 0.0825862
27.81 0.00953457
28.01 0.0452522
28.21 0.0355442
28.41 0.22573
28.61 0.316944
28.81 0.0302492
29.01 0.0278269
29.21 0.00113495
29.41 0.0236187
29.61 0.0489817
29.81 0.0320036
30.01 0.0286069
30.21 0.0741728
30.41 0.0855798
30.61 0.0430399
30.81 0.180009
31.01 0.176493
31.21 -0.0129962
31.41 -0.00199485
31.61 0.0248051
31.81 0.00894214
32.01 -0.00393851
32.21 -0.00356919
32.41 -0.00468708
32.61 0.190433
32.81 0.264544
33.01 0.0338081
33.21 0.0633508
33.41 0.457167
33.61 0.0960453
33.81 0.0244002
34.01 0.224525
34.21 0.117867
34.41 0.0280944
34.61 -0.014438
34.81 0.0336988
35.01 -0.00797278
35.21 0.00315179
35.41 0.030362
35.61 0.0278173
35.81 0.214214
36.01 0.446307
36.21 0.0695095
36.41 0.0671661
36.61 0.181542
36.81 0.0979829
37.01 0.00383157
37.21 0.00558279
37.41 0.00349347
37.61 -0.00596155
37.81 0.0553965
38.01 0.484125
38.21 0.293464
38.41 0.123671
38.61 0.12004
38.81 0.0581564
39.01 0.0218207
39.21 -0.00268973
39.41 0.000386365
39.61 0.0215308
39.81 0.0627314
40.01 0.0307916
40.21 0.242087
40.41 0.167441
40.61 0.00115817
40.81 0.0110308
41.01 -0.0134795
41.21 0.0203818
41.41 0.0548776
41.61 0.033437
41.81 0.0376375
42.01 0.429342
42.21 0.221412
42.41 0.00591489
42.61 0.0336095
42.81 0.101688
43.01 0.137341
43.21 0.0186965
43.41 -0.00918861
43.61 0.151012
43.81 0.82211
44.01 0.169049
44.21 0.0130453
44.41 0.00444518
44.61 0.00242949
44.81 0.132932
45.01 0.0281521
45.21 -0.00795759
45.41 0.069743
45.61 0.00709228
45.81 0.0288543
46.01 0.0930333
46.21 0.290912
46.41 0.203595
46.61 0.00522438
46.81 0.026615
47.01 0.0717811
47.21 0.0307563
47.41 0.0140258
47.61 0.00236473
47.81 0.0669472
48.01 0.0204594
48.21 -0.00395241
48.41 -0.00394558
48.61 0.0328171
48.81 0.0115701
49.01 0.00404093
49.21 0.0242256
49.41 0.0186429
49.61 0.0638267
49.81 0.363748
50.01 0.805887
50.21 0.119024
50.41 0.0100685
50.61 -0.00993629
50.81 0.000247175
51.01 -0.00751896
51.21 -2.47106e-05
51.41 -0.00834249
51.61 0.000646578
51.81 0.0181948
52.01 0.0216714
52.21 0.0042885
52.41 0.0389064
52.61 0.178223
52.81 0.10582
53.01 0.132776
53.21 0.0538835
53.41 -0.0121279
53.61 0.12853
53.81 0.32332
54.01 0.0387688
54.21 0.0246593
54.41 0.0201766
54.61 -0.010386
54.81 0.0574604
55.01 0.0640539
55.21 0.0480153
55.41 0.147416
55.61 0.107983
55.81 0.026285
56.01 -0.001804
56.21 0.049539
56.41 0.0645072
56.61 0.00143103
56.81 0.00238295
57.01 -0.0042102
57.21 0.0116044
57.41 0.0195529
57.61 0.0019458
57.81 -0.00217469
58.01 0.0121682
58.21 0.00294979
58.41 0.032953
58.61 0.00634935
58.81 0.00519457
59.01 0.0344076
59.21 0.0195106
59.41 -0.00176845
59.61 0.00175854
59.81 -0.00948063
60.01 0.00592165
60.21 0.035458
60.41 0.0124968
60.61 -0.00540453
60.81 0.0366084
61.01 0.0375366
61.21 0.0361109
61.41 0.0167569
61.61 0.0382752
61.81 0.0361509
62.01 0.00231169
62.21 0.00470832
62.41 -0.00880794
62.61 0.00361088
62.81 0.0187924
63.01 0.0544711
63.21 0.0511343
63.41 0.00434849
63.61 0.00579523
63.81 0.00128164
64.01 0.0095386
64.21 0.0235391
64.41 0.0397283
64.61 0.0357502
64.81 0.0299225
65.01 0.00845286
65.21 0.0101908
65.41 0.0132361
65.61 0.0315383
65.81 0.039115
66.01 0.0329882
66.21 0.0325267
66.41 0.0413572
66.61 0.0592164
66.81 0.0296199
67.01 -0.00264129
67.21 0.0168101
67.41 0.0399495
67.61 0.0382036
67.81 0.00824408
68.01 0.0445538
68.21 0.0200383
68.41 0.00026252
68.61 0.00417319
68.81 0.0200305
69.01 0.0133454
69.21 0.0412471
69.41 0.0498421
69.61 0.020485
69.81 0.0116682
70.01 0.0127651
70.21 0.0325428
70.41 0.0498505
70.61 0.0268831
70.81 0.00312349
71.01 0.00854417
71.21 -0.0105056
71.41 0.0204372
71.61 0.0212588
71.81 0.0225332
72.01 -0.00629187
72.21 0.00177697
72.41 0.0135089
72.61 0.0320616
72.81 0.0115677
73.01 0.0306074
73.21 0.0349096
73.41 0.0280751
73.61 0.0119406
73.81 0.029534
74.01 0.0194511
74.21 0.00300124
74.41 -0.00827847
74.525 -0.0104873