File: data/xrd/xy/2019-09-12T19_45_57.603044+00_00_LBL_C11.xy
'Id: "" Comment: "Integrate frame piperidinium_03_001.gfrmwith cursor Wedge Cursor #3" Operator: "UC Berkeley" Anode: "Co" Scantype: "TwoTheta" TimePerStep: "600"
14.175 -0.0258973
14.36 -0.00840308
14.545 0.0305478
14.73 0.0453737
14.915 -0.00363183
15.1 0.033757
15.285 0.0272937
15.47 -0.0120718
15.655 0.0691942
15.84 -0.00262826
16.025 0.0707028
16.21 0.0802819
16.395 0.0462072
16.58 0.0209911
16.765 0.105364
16.95 0.0969127
17.135 0.0751559
17.32 0.0393965
17.505 -0.0204668
17.69 0.0335856
17.875 -0.00313783
18.06 0.00793702
18.245 0.0605367
18.43 0.0101519
18.615 0.0254568
18.8 0.0605146
18.985 0.0830005
19.17 0.00874215
19.355 0.013804
19.54 0.000212563
19.725 0.0900206
19.91 0.0391542
20.095 0.0276329
20.28 0.0162847
20.465 0.0291489
20.65 0.0402431
20.835 0.00270377
21.02 0.0204507
21.205 0.079878
21.39 0.0319744
21.575 0.0104765
21.76 0.0167813
21.945 0.0495857
22.13 0.0393418
22.315 0.00466083
22.5 0.00856148
22.685 0.00613351
22.87 0.063468
23.055 -0.00934787
23.24 0.00314935
23.425 0.00948519
23.61 0.0657508
23.795 0.0493626
23.98 0.00202906
24.165 0.254186
24.35 0.898108
24.535 0.0260022
24.72 0.194929
24.905 0.277787
25.09 1.04893
25.275 0.994694
25.46 0.0785023
25.645 0.0590965
25.83 0.265562
26.015 0.393616
26.2 1.57295
26.385 0.931476
26.57 0.0869835
26.755 -0.00893516
26.94 0.109411
27.125 0.159604
27.31 0.0405902
27.495 0.998632
27.68 0.367961
27.865 0.0162643
28.05 0.074111
28.235 0.190214
28.42 0.543049
28.605 0.117908
28.79 0.137538
28.975 0.0164666
29.16 0.0301845
29.345 0.0160025
29.53 -0.0114688
29.715 0.113641
29.9 0.0551017
30.085 0.0568251
30.27 0.00547643
30.455 0.0715274
30.64 0.0187101
30.825 -0.0136584
31.01 0.106538
31.195 0.252494
31.38 0.461252
31.565 0.0542168
31.75 0.0214605
31.935 0.236408
32.12 0.021461
32.305 0.0616631
32.49 0.811973
32.675 1.47991
32.86 0.360056
33.045 0.643968
33.23 0.515274
33.415 1.72051
33.6 0.805731
33.785 0.109538
33.97 0.144316
34.155 0.17063
34.34 0.413775
34.525 0.745871
34.71 0.142441
34.895 -0.0100337
35.08 0.0396971
35.265 0.206072
35.45 0.215273
35.635 0.173923
35.82 0.0129871
36.005 0.0498561
36.19 0.00758113
36.375 0.0356049
36.56 0.0114922
36.745 0.0722025
36.93 0.107369
37.115 0.101886
37.3 0.0401221
37.485 0.0332053
37.67 0.0443676
37.855 -0.019366
38.04 -0.00918196
38.225 -0.0128845
38.41 0.00529089
38.595 0.0503973
38.78 0.177118
38.965 0.109087
39.15 0.0907933
39.335 0.0914634
39.52 0.0614152
39.705 0.113289
39.89 0.137745
40.075 0.0959335
40.26 0.117993
40.445 0.0352665
40.63 0.028863
40.815 0.299165
41 0.425923
41.185 0.27662
41.37 0.0258939
41.555 0.0265996
41.74 0.152683
41.925 0.305144
42.11 0.40337
42.295 0.0465285
42.48 0.00205389
42.665 0.00295007
42.85 0.185007
43.035 0.366201
43.22 0.188142
43.405 0.0714164
43.59 0.0649547
43.775 -0.000871119
43.96 0.0138728
44.145 0.000684936
44.33 0.0534013
44.515 0.178511
44.7 0.149271
44.885 0.145747
45.07 0.025173
45.255 0.0852491
45.44 0.201876
45.625 0.283374
45.81 0.212942
45.995 0.0817625
46.18 0.146461
46.365 0.198052
46.55 0.122582
46.735 0.391767
46.92 0.339576
47.105 0.144137
47.29 0.101766
47.475 0.0733934
47.66 0.00525767
47.845 -0.0139996
48.03 0.0122079
48.215 0.0579789
48.4 0.035597
48.585 0.124687
48.77 0.111413
48.955 0.0440331
49.14 0.00963407
49.325 -0.00941587
49.51 -0.010396
49.695 0.00518761
49.88 0.00986221
50.065 0.0164425
50.25 -0.0111101
50.435 0.0480269
50.62 0.0504038
50.805 0.036669
50.99 -0.00731981
51.175 0.00810056
51.36 0.0404832
51.545 0.071347
51.73 0.0057856
51.915 0.0195016
52.1 0.0567164
52.285 0.0556889
52.47 -0.00273405
52.655 -0.0109172
52.84 0.024373
53.025 0.105552
53.21 0.196223
53.395 0.145359
53.58 0.0354089
53.765 0.0509193
53.95 0.034546
54.135 0.0210105
54.32 -0.00313117
54.505 0.00179741
54.69 -0.0095711
54.875 -0.0129466
55.06 0.00631097
55.245 0.0501906
55.43 0.150731
55.615 0.122371
55.8 0.0386315
55.985 0.0485415
56.17 0.0457043
56.355 0.0288568
56.54 0.0191317
56.725 0.0320877
56.91 0.042055
57.095 0.0895695
57.28 0.0458851
57.465 0.0140187
57.65 -0.0165149
57.835 -0.0134198
58.02 0.0117703
58.205 0.0019178
58.39 0.0306304
58.575 0.0409846
58.76 0.0509225
58.945 0.0365915
59.13 -0.000286609
59.315 -0.00681032
59.5 0.00345825
59.685 0.026909
59.87 0.0319303
60.055 0.00753507
60.24 -0.00649266
60.425 0.00890154
60.61 0.0555166
60.795 0.056307
60.98 0.0506763
61.165 0.0152797
61.35 0.00674452
61.535 0.0198211
61.72 -0.00294342
61.905 -0.00239089
62.09 -0.0115462
62.275 -0.000261038
62.46 -0.00123835
62.645 0.00718806
62.83 -0.00121353
63.015 0.0331948
63.2 0.0477273
63.385 0.00917389
63.57 0.000885686
63.755 0.00755037
63.94 0.0090733
64.125 0.00174153
64.31 0.0125098
64.495 -0.00127003
64.68 0.00549196
64.865 -0.00792491
65.05 -0.000321784
65.235 -0.00220974
65.42 0.0018867
65.605 0.0110853
65.79 0.0141725
65.975 -0.00545437
66.16 0.00982631
66.345 0.00793489
66.53 -0.00136899
66.715 0.00511549
66.9 0.00991483
67.085 0.0302624
67.27 0.0541367
67.455 0.0724053
67.64 0.011845
67.825 -0.00463355
68.01 0.00291103
68.195 0.00788025
68.38 0.0152385
68.565 0.0381877
68.75 0.036437
68.935 0.0347099
69.12 -0.00663188
69.275 -0.0189139