File: data/xrd/xy/2019-05-30T15_19_31.623252+00_00_LBL_H3.xy
'Id: "" Comment: "Integrate frame neopen_trifluo_01_001.gfrmwith cursor Wedge Cursor #1" Operator: "UC Berkeley" Anode: "Co" Scantype: "TwoTheta" TimePerStep: "700"
13.885 -0.0237601
14.075 0.0171115
14.265 0.0618911
14.455 0.0148796
14.645 0.248591
14.835 0.17274
15.025 0.056793
15.215 0.0214731
15.405 0.0122852
15.595 0.0574092
15.785 0.020288
15.975 0.0277021
16.165 0.046251
16.355 0.0536376
16.545 0.0362292
16.735 0.0110709
16.925 -0.00096409
17.115 0.046494
17.305 0.0163791
17.495 0.023322
17.685 0.0142174
17.875 0.0264374
18.065 0.00591125
18.255 0.0241267
18.445 0.0160367
18.635 0.0149987
18.825 0.00333746
19.015 0.0510147
19.205 0.0372386
19.395 0.0409548
19.585 0.0365625
19.775 0.062039
19.965 -0.00580728
20.155 -0.00423642
20.345 0.035902
20.535 0.00142698
20.725 0.0289655
20.915 0.00820895
21.105 0.0185155
21.295 -0.00179826
21.485 0.0256638
21.675 -0.00327536
21.865 -0.00932516
22.055 0.037911
22.245 0.0360385
22.435 0.0232502
22.625 0.0408477
22.815 0.00346083
23.005 0.0410242
23.195 0.0400412
23.385 0.0309258
23.575 0.0330159
23.765 0.0276803
23.955 0.00588907
24.145 0.0181561
24.335 0.0268565
24.525 0.00642014
24.715 0.00459
24.905 0.0381309
25.095 0.0248611
25.285 0.00666876
25.475 0.00644389
25.665 0.0380665
25.855 0.0151653
26.045 0.0213655
26.235 0.0251019
26.425 0.0333443
26.615 0.053664
26.805 0.0465007
26.995 0.0540072
27.185 0.12941
27.375 0.0918076
27.565 0.0443222
27.755 0.0290094
27.945 0.0241098
28.135 0.0307041
28.325 0.00259921
28.515 0.0259498
28.705 0.0354766
28.895 0.0191924
29.085 0.0775257
29.275 0.0482892
29.465 0.0512379
29.655 0.0755218
29.845 0.0756154
30.035 0.123214
30.225 0.327904
30.415 0.0878604
30.605 0.0559415
30.795 0.0411847
30.985 0.0209035
31.175 0.0200483
31.365 0.0250423
31.555 0.0128502
31.745 0.0134924
31.935 0.00297778
32.125 -0.00245146
32.315 0.00187532
32.505 0.00730187
32.695 0.0212764
32.885 0.0530629
33.075 0.0655707
33.265 0.0480178
33.455 0.0328174
33.645 0.036414
33.835 0.0332735
34.025 0.0555697
34.215 0.0521299
34.405 0.171759
34.595 0.377088
34.785 0.116005
34.975 0.0608916
35.165 0.0434921
35.355 0.0216867
35.545 0.0327198
35.735 0.0250777
35.925 0.0356955
36.115 0.0749019
36.305 0.0847232
36.495 0.0485323
36.685 0.0265588
36.875 0.018126
37.065 -0.00617819
37.255 0.0125586
37.445 -0.0136438
37.635 -0.00959274
37.825 -0.00794685
38.015 -0.00606296
38.205 -0.0140811
38.395 -0.0148369
38.585 -0.00608
38.775 0.00878354
38.965 -0.0117689
39.155 -0.00261534
39.345 0.017608
39.535 0.00292224
39.725 0.0250831
39.915 0.0746227
40.105 0.0798645
40.295 0.0095813
40.485 0.0235387
40.675 -0.011926
40.865 0.0114049
41.055 0.0208892
41.245 -0.0165003
41.435 0.00757133
41.625 0.0148157
41.815 0.00647166
42.005 0.00305313
42.195 -0.0160838
42.385 0.0044571
42.575 0.00323436
42.765 0.00192303
42.955 0.01424
43.145 0.0100559
43.335 0.0150235
43.525 -0.0062878
43.715 0.007079
43.905 0.00567199
44.095 0.0105164
44.285 0.0230529
44.475 0.0145759
44.665 0.0116089
44.855 0.0614621
45.045 0.249019
45.235 0.235809
45.425 0.0422811
45.615 0.0324931
45.805 0.057023
45.995 0.216297
46.185 0.973573
46.375 0.750137
46.565 0.0943612
46.755 0.0401464
46.945 0.0180323
47.135 0.010455
47.325 0.0127916
47.515 -0.00431401
47.705 0.00850806
47.895 0.00966551
48.085 0.0131792
48.275 0.0198643
48.465 0.0218502
48.655 0.145877
48.845 0.214004
49.035 0.0485799
49.225 0.0029485
49.415 0.0116358
49.605 -0.00840953
49.795 -0.00147671
49.985 -0.0131138
50.175 -0.0103425
50.365 -0.0051293
50.555 -0.000954268
50.745 0.0121508
50.935 0.00471305
51.125 -0.00807028
51.315 -0.00195762
51.505 0.00172088
51.695 -0.0060623
51.885 -0.000341407
52.075 0.00267492
52.265 -0.00017639
52.455 -0.00472767
52.645 0.0125273
52.835 0.0479647
53.025 0.0778593
53.215 0.0282062
53.405 0.0149067
53.595 -0.00715222
53.785 -0.00597496
53.975 -0.00147858
54.165 0.0149612
54.355 0.0263335
54.545 0.0254409
54.735 0.00419722
54.925 0.00771455
55.115 0.000252879
55.305 0.00732787
55.495 0.0115371
55.685 0.0141188
55.875 0.0137518
56.065 0.0439196
56.255 0.0449259
56.445 0.0321851
56.635 -0.00419612
56.825 0.0115858
57.015 -0.00390177
57.205 0.0110006
57.395 -0.00303845
57.585 -0.00808913
57.775 0.00214713
57.965 0.00937813
58.155 0.000490721
58.345 0.0123076
58.535 0.0196483
58.725 0.0194518
58.915 0.0636107
59.105 0.0543456
59.295 0.0472008
59.485 0.025863
59.675 0.0143374
59.865 0.018324
60.055 0.0269261
60.245 0.0285564
60.435 0.0140451
60.625 -0.0134716
60.815 -0.00240175
61.005 -0.00336443
61.195 0.0286333
61.385 0.119007
61.575 0.217843
61.765 0.211083
61.955 0.0146017
62.145 -0.00244828
62.335 0.00403864
62.525 0.00591694
62.715 0.027367
62.905 0.0260712
63.095 0.0206718
63.285 0.00316692
63.475 0.00934379
63.665 0.00696183
63.855 0.0034954
64.045 0.00809887
64.235 0.0047742
64.425 0.00966546
64.615 0.00142166
64.805 -0.00559269
64.995 -0.00822445
65.185 0.00471726
65.375 -0.00453322
65.565 0.00179952
65.755 0.00919264
65.945 0.0204117
66.135 0.0215822
66.325 0.0620856
66.515 0.189422
66.705 0.193369
66.895 0.110665
67.085 0.0267758
67.275 0.0187202
67.465 0.0347719
67.655 0.0288529
67.845 0.00224993
68.035 0.00382362
68.225 0.00640369
68.415 -0.0133616
68.605 -0.00405338
68.795 0.00400957
68.985 -0.00220595
69.175 0.00362344
69.365 0.00389362
69.555 0.00100384
69.745 -0.00762564
69.935 -0.0048613
69.96 -0.0132409