File: data/xrd/xy/2019-04-10T15_37_43.338519+00_00_LBL.xy
'Id: "" Comment: "Integrate frame EtABr_EtA2I_03_001.gfrmwith cursor Wedge Cursor #4" Operator: "UC Berkeley" Anode: "Co" Scantype: "TwoTheta" TimePerStep: "400"
14.095 -0.0327482
14.285 0.0543541
14.475 0.0602053
14.665 0.000364342
14.855 0.0698146
15.045 0.0170566
15.235 0.0277011
15.425 0.0255401
15.615 0.0884317
15.805 0.0229334
15.995 0.069786
16.185 0.0118712
16.375 0.0220281
16.565 0.0426137
16.755 0.022184
16.945 0.0368949
17.135 0.0299241
17.325 0.03779
17.515 0.0410407
17.705 0.094289
17.895 0.0405185
18.085 0.0777396
18.275 0.0923831
18.465 0.141339
18.655 0.107102
18.845 0.0180858
19.035 0.0613418
19.225 0.0589001
19.415 0.0366367
19.605 0.0617109
19.795 0.0515656
19.985 0.0341152
20.175 0.0320958
20.365 0.0576946
20.555 -0.0123429
20.745 0.0237264
20.935 0.0519348
21.125 0.00193284
21.315 0.0593681
21.505 -0.0146082
21.695 0.0227595
21.885 0.0182016
22.075 0.0291693
22.265 0.0538139
22.455 0.0517929
22.645 0.0384815
22.835 0.0206774
23.025 0.0492811
23.215 0.0792665
23.405 0.187911
23.595 0.204004
23.785 0.0499914
23.975 0.0239646
24.165 0.0262353
24.355 0.0330663
24.545 0.0333452
24.735 -0.000738193
24.925 0.0309631
25.115 0.0689914
25.305 0.1686
25.495 0.0344709
25.685 0.0139483
25.875 0.0202119
26.065 0.0287452
26.255 0.0150437
26.445 0.0313282
26.635 0.0536278
26.825 0.0252904
27.015 0.0344371
27.205 0.0656273
27.395 -0.00530979
27.585 0.0525277
27.775 0.0470942
27.965 0.0372256
28.155 0.0521723
28.345 0.022213
28.535 0.0431327
28.725 0.354608
28.915 0.134101
29.105 0.0580665
29.295 0.0789665
29.485 0.109699
29.675 0.190018
29.865 0.769663
30.055 2.79619
30.245 0.559116
30.435 0.111272
30.625 0.0362819
30.815 0.0374187
31.005 0.0165172
31.195 0.013238
31.385 0.0384408
31.575 0.017002
31.765 0.00659167
31.955 -0.011331
32.145 0.0175269
32.335 -0.0178037
32.525 0.000717594
32.715 0.0122228
32.905 0.012015
33.095 -0.000852584
33.285 -0.0154637
33.475 0.0094807
33.665 0.0166006
33.855 0.0221442
34.045 0.00901993
34.235 0.0299711
34.425 0.118928
34.615 0.539951
34.805 1.15036
34.995 0.214055
35.185 0.0579272
35.375 0.0177631
35.565 0.0117822
35.755 0.0341559
35.945 0.24983
36.135 1.04408
36.325 0.937518
36.515 0.14596
36.705 0.0455138
36.895 0.0645155
37.085 0.101812
37.275 0.635304
37.465 1.20045
37.655 0.321639
37.845 0.061632
38.035 0.0146298
38.225 0.0559837
38.415 0.212744
38.605 0.126662
38.795 0.0248044
38.985 -0.00120186
39.175 -0.00656973
39.365 -0.00593438
39.555 0.0101708
39.745 0.0163089
39.935 -0.00424979
40.125 -0.0215324
40.315 -0.00153565
40.505 0.00719708
40.695 0.0811283
40.885 0.063124
41.075 0.088601
41.265 0.23312
41.455 0.0898672
41.645 0.00870804
41.835 0.00212426
42.025 0.0124239
42.215 -0.0055365
42.405 0.00152736
42.595 -0.000985952
42.785 -0.00975737
42.975 -0.00530673
43.165 0.024162
43.355 0.00368644
43.545 0.002381
43.735 0.0170695
43.925 0.0127187
44.115 0.0266263
44.305 0.0672737
44.495 0.199775
44.685 0.32956
44.875 0.117574
45.065 0.0113648
45.255 0.0115486
45.445 -0.00982628
45.635 0.00809763
45.825 0.0254916
46.015 0.0183198
46.205 0.00829794
46.395 0.0229075
46.585 -0.00362156
46.775 0.0474303
46.965 0.0378105
47.155 0.0447467
47.345 0.174383
47.535 0.354453
47.725 0.504
47.915 1.12342
48.105 1.27998
48.295 0.425409
48.485 0.118703
48.675 0.10824
48.865 0.266521
49.055 0.349592
49.245 0.160632
49.435 0.0580011
49.625 0.0539938
49.815 0.155529
50.005 0.445724
50.195 0.61945
50.385 0.205752
50.575 0.0273183
50.765 0.00356906
50.955 -0.0147932
51.145 -0.00309237
51.335 -0.00432283
51.525 0.0902439
51.715 0.242859
51.905 0.285963
52.095 0.122234
52.285 0.0186796
52.475 -0.00479809
52.665 0.00522999
52.855 -0.00381839
53.045 -0.0122094
53.235 0.0165394
53.425 0.0407113
53.615 0.113419
53.805 0.19317
53.995 0.123509
54.185 0.0102989
54.375 -0.00075228
54.565 -0.0151862
54.755 -0.0190203
54.945 0.0213074
55.135 0.013002
55.325 -0.0059953
55.515 -0.00580953
55.705 -0.00871067
55.895 0.00810675
56.085 -0.0036133
56.275 0.0170227
56.465 -0.00526819
56.655 0.0140629
56.845 0.0568131
57.035 0.0744991
57.225 0.0492704
57.415 0.111866
57.605 0.235474
57.795 0.29002
57.985 0.113318
58.175 0.0248717
58.365 -0.00916255
58.555 -0.00302862
58.745 -0.00230184
58.935 0.00272656
59.125 0.000274972
59.315 0.00364648
59.505 0.0137337
59.695 0.0158248
59.885 0.000996744
60.075 -0.00155458
60.265 0.0242704
60.455 0.00147939
60.645 -0.0176698
60.835 0.0143484
61.025 0.0300173
61.215 0.0632985
61.405 0.0821532
61.595 0.192075
61.785 0.163298
61.975 0.0995965
62.165 0.105224
62.355 0.228791
62.545 0.226864
62.735 0.10841
62.925 0.018705
63.115 0.0131998
63.305 0.00925738
63.495 -0.00111375
63.685 -0.0130838
63.875 -0.00300893
64.065 -0.00806834
64.255 0.00950855
64.445 0.0169004
64.635 0.0666033
64.825 0.11644
65.015 0.13072
65.205 0.0766486
65.395 0.0115507
65.585 0.00379748
65.775 0.00415934
65.965 0.00162127
66.155 0.00312034
66.345 0.00883467
66.535 -0.0019613
66.725 -0.00890145
66.915 -0.00904765
67.105 0.0123655
67.295 -0.000773297
67.485 0.0304885
67.675 0.046938
67.865 0.0413844
68.055 0.0130731
68.245 0.029185
68.435 0.0179375
68.625 0.00658625
68.815 0.00298287
69.005 0.00778385
69.195 0.0180933
69.385 0.014934
69.575 -0.00543815
69.76 -0.0209923