File: data/xrd/xy/2019-05-29T19_56_50.129046+00_00_LBL_A1.xy
'Id: "" Comment: "Integrate frame 4Fluorophenyl_01_002.gfrmwith cursor Wedge Cursor #1" Operator: "UC Berkeley" Anode: "Co" Scantype: "TwoTheta" TimePerStep: "600"
14.31 -0.0254518
14.485 0.000151474
14.66 0.0279062
14.835 0.0230432
15.01 0.0604108
15.185 0.0246734
15.36 0.0286335
15.535 0.0281048
15.71 0.00705617
15.885 0.00585414
16.06 0.0102381
16.235 0.0051961
16.41 0.0100381
16.585 -0.0246251
16.76 0.0186231
16.935 0.0462086
17.11 0.0101371
17.285 0.0068727
17.46 0.00565399
17.635 0.030709
17.81 0.0152408
17.985 0.0325582
18.16 0.0285626
18.335 -0.00223886
18.51 0.0196433
18.685 0.111329
18.86 0.0942
19.035 0.0306473
19.21 0.00680432
19.385 0.0445168
19.56 0.017922
19.735 -0.00345204
19.91 -0.00124019
20.085 0.018124
20.26 -0.00965325
20.435 0.0240485
20.61 0.0172625
20.785 0.00852799
20.96 -0.0243594
21.135 0.0232416
21.31 0.0270823
21.485 0.0400721
21.66 0.0140574
21.835 0.0283621
22.01 0.013156
22.185 0.00348448
22.36 -0.0243931
22.535 0.00395794
22.71 -0.0221303
22.885 0.029482
23.06 0.0127466
23.235 0.0393195
23.41 0.00183559
23.585 0.0666044
23.76 0.0651666
23.935 0.0005555
24.11 0.0119161
24.285 -0.00660388
24.46 0.0424957
24.635 0.00397334
24.81 0.071219
24.985 0.982489
25.16 0.49642
25.335 0.0297943
25.51 0.0522791
25.685 -0.00724787
25.86 -0.0235609
26.035 -0.0172512
26.21 0.0110283
26.385 -0.0056545
26.56 -0.00524384
26.735 -0.00686625
26.91 0.0286324
27.085 0.0469277
27.26 0.189654
27.435 -0.00808022
27.61 -0.00232388
27.785 -0.0105633
27.96 0.0319769
28.135 0.0255702
28.31 0.0431528
28.485 -0.012976
28.66 -0.0178596
28.835 0.0157507
29.01 0.00510535
29.185 0.000355628
29.36 -0.0140194
29.535 0.00836708
29.71 0.21141
29.885 0.0204821
30.06 0.399284
30.235 0.743992
30.41 0.0805591
30.585 0.0753428
30.76 0.0162181
30.935 0.0804299
31.11 0.234926
31.285 2.88579
31.46 21.7284
31.635 0.638896
31.81 0.217472
31.985 0.0592467
32.16 0.000754586
32.335 -0.0156906
32.51 -0.0131387
32.685 0.00159901
32.86 0.0107865
33.035 0.019401
33.21 -0.0119906
33.385 -0.0140472
33.56 0.0259875
33.735 0.117029
33.91 0.340879
34.085 0.171001
34.26 0.0958639
34.435 0.522152
34.61 1.16124
34.785 0.179864
34.96 0.0744243
35.135 0.0456262
35.31 0.0245927
35.485 0.00474415
35.66 -0.00395672
35.835 -0.00518111
36.01 0.00559775
36.185 0.0546639
36.36 0.026306
36.535 0.00558114
36.71 -0.0114687
36.885 -0.0215981
37.06 -0.0148001
37.235 0.000995576
37.41 0.118632
37.585 0.140585
37.76 0.617458
37.935 8.78973
38.11 2.5612
38.285 0.149714
38.46 0.0174487
38.635 0.00013126
38.81 -0.0204506
38.985 -0.0210718
39.16 0.00357759
39.335 0.000298174
39.51 0.0112319
39.685 0.0226597
39.86 0.293446
40.035 0.609704
40.21 0.102898
40.385 0.0098141
40.56 -0.00501878
40.735 0.00821765
40.91 0.0306179
41.085 -0.00110351
41.26 -0.0143067
41.435 8.23835e-05
41.61 -0.011887
41.785 -0.00333498
41.96 0.0148829
42.135 -0.00633393
42.31 -0.00317662
42.485 -0.00510119
42.66 0.0121065
42.835 0.0075559
43.01 -0.00242137
43.185 0.017244
43.36 0.00910432
43.535 0.00577012
43.71 0.000775602
43.885 0.00731047
44.06 0.042825
44.235 0.0771946
44.41 0.108624
44.585 0.677049
44.76 0.334569
44.935 0.234018
45.11 1.82408
45.285 1.08784
45.46 0.0813997
45.635 0.0151467
45.81 0.0697
45.985 0.318559
46.16 1.39636
46.335 0.915452
46.51 0.0988442
46.685 0.0165076
46.86 -0.00922386
47.035 0.00926774
47.21 0.00137503
47.385 0.0173915
47.56 -0.0190778
47.735 -0.00976454
47.91 -0.0011214
48.085 0.00134458
48.26 -0.00488085
48.435 -0.0182996
48.61 0.0799289
48.785 0.265241
48.96 0.0623202
49.135 -0.00325049
49.31 0.108832
49.485 0.226502
49.66 0.138608
49.835 0.00722906
50.01 -0.00445124
50.185 -0.00384692
50.36 -0.0142811
50.535 -0.00157108
50.71 0.00190371
50.885 -0.00363608
51.06 0.0049292
51.235 0.0033616
51.41 0.0345367
51.585 0.0204008
51.76 -0.00717886
51.935 0.00705564
52.11 -0.00384569
52.285 -0.00881659
52.46 0.00834406
52.635 0.0479322
52.81 0.216165
52.985 0.478101
53.16 0.206323
53.335 0.0364905
53.51 0.0210097
53.685 0.0272971
53.86 -0.00487584
54.035 -0.0151054
54.21 -0.00902324
54.385 0.018315
54.56 0.0502256
54.735 0.015801
54.91 0.0120681
55.085 0.00251453
55.26 -0.0130743
55.435 -0.010619
55.61 -0.00653763
55.785 0.00900225
55.96 0.0494333
56.135 0.0861248
56.31 0.106192
56.485 0.0289563
56.66 -0.0069054
56.835 -0.014525
57.01 -0.0157537
57.185 0.0435566
57.36 0.020945
57.535 -0.0149773
57.71 -0.0130163
57.885 0.00167071
58.06 -0.0128073
58.235 0.0283508
58.41 0.0327798
58.585 0.00465118
58.76 0.0302714
58.935 0.100262
59.11 0.128747
59.285 0.0384082
59.46 0.00449355
59.635 0.0116934
59.81 -0.000266265
59.985 0.0284449
60.16 0.0418152
60.335 0.0431662
60.51 0.0421496
60.685 -0.00272342
60.86 -0.00487982
61.035 0.00156327
61.21 0.0507245
61.385 0.488585
61.56 1.30754
61.735 0.931174
61.91 0.13701
62.085 0.0048862
62.26 0.00245183
62.435 0.0085098
62.61 0.0297855
62.785 0.0715744
62.96 0.0394615
63.135 0.0101047
63.31 0.016638
63.485 0.0341569
63.66 -0.000758281
63.835 -0.000500872
64.01 0.0153765
64.185 4.37345e-05
64.36 -0.00930652
64.535 -0.00149201
64.71 0.0132199
64.885 0.0154152
65.06 0.00758355
65.235 0.00416049
65.41 -0.00164578
65.585 -0.00330254
65.635 -0.0165655