File: data/xrd/xy/2019-05-29T19_56_50.129046+00_00_LBL_B1.xy
'Id: "" Comment: "Integrate frame 4Fluorophenyl_02_002.gfrmwith cursor Wedge Cursor #2" Operator: "UC Berkeley" Anode: "Co" Scantype: "TwoTheta" TimePerStep: "600"
14.435 -0.0248292
14.61 0.003589
14.785 0.0546091
14.96 0.0229158
15.135 0.0157716
15.31 0.0415608
15.485 0.000254339
15.66 0.015304
15.835 0.0245227
16.01 0.0453644
16.185 0.0154947
16.36 -0.0173787
16.535 0.0556683
16.71 0.0353396
16.885 0.0301853
17.06 0.0444228
17.235 0.0795197
17.41 0.00717088
17.585 -0.00414832
17.76 0.0341447
17.935 -0.00775387
18.11 0.0660238
18.285 0.0481067
18.46 0.082507
18.635 0.182481
18.81 0.0535469
18.985 0.0262425
19.16 0.0148206
19.335 0.0387294
19.51 0.0182702
19.685 0.00506267
19.86 0.0277446
20.035 0.0123584
20.21 -0.00947132
20.385 0.0204632
20.56 0.035478
20.735 0.015526
20.91 0.00935128
21.085 0.0322947
21.26 0.0426798
21.435 0.0129105
21.61 0.02153
21.785 0.0526621
21.96 0.0115514
22.135 0.0042217
22.31 0.034689
22.485 0.0330805
22.66 0.0231874
22.835 0.058319
23.01 -0.00249464
23.185 0.0476011
23.36 0.0404144
23.535 0.061161
23.71 0.244796
23.885 2.41216
24.06 0.0839217
24.235 0.037861
24.41 0.0142993
24.585 0.0437368
24.76 0.0277211
24.935 0.189737
25.11 0.0480939
25.285 0.0116638
25.46 0.0172149
25.635 0.0372817
25.81 0.0272039
25.985 0.00186308
26.16 0.0514643
26.335 0.0232784
26.51 0.22529
26.685 0.144326
26.86 0.0562437
27.035 0.0529888
27.21 0.0585872
27.385 0.0321541
27.56 0.0293606
27.735 0.0494499
27.91 0.0603088
28.085 0.0908399
28.26 0.0436254
28.435 0.0570309
28.61 0.0690373
28.785 0.0740259
28.96 0.0251479
29.135 0.00556631
29.31 0.0319022
29.485 0.00951146
29.66 0.0418646
29.835 -0.00158137
30.01 0.0353729
30.185 0.0172529
30.36 0.0860942
30.535 0.261367
30.71 0.0555149
30.885 0.463746
31.06 0.12824
31.235 0.997773
31.41 1.13499
31.585 0.303847
31.76 0.688693
31.935 0.458905
32.11 0.0314784
32.285 0.0211371
32.46 -0.0043376
32.635 0.0317069
32.81 -0.000565594
32.985 0.0130434
33.16 -0.000196686
33.335 0.0268951
33.51 -0.00720731
33.685 0.0470243
33.86 0.0996271
34.035 0.314545
34.21 0.383192
34.385 0.0293044
34.56 0.00276758
34.735 0.0174514
34.91 0.0632055
35.085 0.019795
35.26 -0.00689133
35.435 -0.00175301
35.61 0.0161903
35.785 0.0126526
35.96 -0.0143909
36.135 0.00655463
36.31 -0.00720705
36.485 -0.00739202
36.66 -0.00196314
36.835 0.01379
37.01 0.00879811
37.185 0.00954508
37.36 0.148868
37.535 0.509266
37.71 1.09192
37.885 1.40813
38.06 0.35393
38.235 0.380937
38.41 0.136799
38.585 0.0166281
38.76 -0.00519419
38.935 0.0131485
39.11 0.195523
39.285 0.0587496
39.46 0.0694076
39.635 0.0326486
39.81 0.165157
39.985 0.180998
40.16 0.081516
40.335 0.00666614
40.51 0.00117301
40.685 0.0108713
40.86 0.0350736
41.035 -0.00266415
41.21 -0.00105024
41.385 0.00247294
41.56 0.000241282
41.735 0.0168191
41.91 0.00896751
42.085 0.00194638
42.26 -0.0127721
42.435 0.0190889
42.61 0.0471835
42.785 0.0281842
42.96 0.0011316
43.135 -0.00103631
43.31 0.0379424
43.485 0.0439973
43.66 0.0380347
43.835 0.00144756
44.01 0.000861305
44.185 0.0444025
44.36 0.114296
44.535 0.264188
44.71 0.204576
44.885 0.0501471
45.06 0.0755453
45.235 0.0772031
45.41 0.143136
45.585 0.0267939
45.76 0.00121031
45.935 -0.00357628
46.11 0.0645036
46.285 0.0265855
46.46 0.00517115
46.635 -0.00561138
46.81 0.00456369
46.985 0.00529047
47.16 0.00305057
47.335 0.0182919
47.51 0.00534192
47.685 0.0185939
47.86 0.0107053
48.035 0.022954
48.21 -0.00819912
48.385 0.00150055
48.56 0.0566697
48.735 0.0919601
48.91 0.451361
49.085 0.830788
49.26 0.0964439
49.435 0.111732
49.61 0.140258
49.785 -0.00656632
49.96 0.00256985
50.135 -0.0084551
50.31 0.00246904
50.485 0.0301263
50.66 0.0031622
50.835 -0.00912425
51.01 0.0219595
51.185 0.025407
51.36 0.0134715
51.535 0.0208258
51.71 0.0356132
51.885 0.002177
52.06 -0.00723036
52.235 0.00427951
52.41 -0.00881558
52.585 -0.0117405
52.76 -0.00546479
52.935 0.0054113
53.11 0.00822986
53.285 0.0317842
53.46 0.119559
53.635 0.154508
53.81 0.113206
53.985 0.0695976
54.16 0.0408964
54.335 0.0311789
54.51 0.0193841
54.685 0.0850983
54.86 0.0283577
55.035 0.038242
55.21 0.103612
55.385 0.0222326
55.56 -0.0141205
55.735 0.00734565
55.91 0.0315114
56.085 0.0135105
56.26 0.00758245
56.435 -0.00394287
56.61 0.000510036
56.785 -0.0041154
56.96 -0.0128766
57.135 0.0225446
57.31 0.00562074
57.485 0.00143078
57.66 -0.00541683
57.835 -0.0044645
58.01 0.00538974
58.185 0.00310093
58.36 0.234564
58.535 0.38729
58.71 0.0967747
58.885 0.000281454
59.06 0.0418264
59.235 -0.000175602
59.41 0.00909362
59.585 0.00507633
59.76 -0.00252457
59.935 -0.00291968
60.11 -0.0129636
60.285 -0.000429767
60.46 0.00934775
60.635 0.00609898
60.81 0.0115178
60.985 0.00729399
61.16 0.02165
61.335 -0.0100971
61.51 0.0146734
61.685 -0.0018654
61.86 0.0638043
62.035 0.000553189
62.21 0.00911489
62.385 -0.0118906
62.56 0.0214111
62.735 0.00744787
62.91 0.107659
63.085 0.108904
63.26 0.0457011
63.435 0.117267
63.61 0.0160238
63.785 0.0116957
63.96 0.0340259
64.135 -0.0031928
64.31 -0.0112164
64.485 0.0166926
64.66 0.0152246
64.835 -8.77349e-05
65.01 -0.00838193
65.185 0.013015
65.36 0.0277413
65.535 -0.0118721
65.585 -0.0216816