File: data/xrd/xy/2019-06-10T22_05_20.195696+00_00_LBL_F4.xy
'Id: "" Comment: "Integrate frame 06132019_dimethyl_ipropyl_04_002.gfrmwith cursor Wedge Cursor #4" Operator: "UC Berkeley" Anode: "Co" Scantype: "TwoTheta" TimePerStep: "480"
23.26 -0.0293875
23.39 -0.00977888
23.52 -0.00412119
23.65 0.00224761
23.78 -0.00969128
23.91 0.0102297
24.04 -0.0026815
24.17 0.0236571
24.3 0.0195753
24.43 3.67375e-06
24.56 0.0344596
24.69 0.0442323
24.82 0.0141904
24.95 0.0421188
25.08 0.0535042
25.21 0.0870404
25.34 0.0598031
25.47 0.068699
25.6 0.050125
25.73 0.0571571
25.86 0.0373578
25.99 0.0137522
26.12 0.0345624
26.25 0.0615394
26.38 0.124901
26.51 0.0539699
26.64 -0.00272603
26.77 0.0403998
26.9 0.0271756
27.03 0.0600774
27.16 0.0211041
27.29 0.125383
27.42 0.210841
27.55 0.166528
27.68 0.198659
27.81 0.306944
27.94 0.274393
28.07 0.206899
28.2 0.157782
28.33 0.197811
28.46 0.197745
28.59 0.128801
28.72 0.14436
28.85 0.285922
28.98 0.466182
29.11 0.405798
29.24 0.368041
29.37 0.359466
29.5 0.19546
29.63 0.14659
29.76 0.0796801
29.89 0.0688774
30.02 0.0417507
30.15 0.0327387
30.28 0.0123902
30.41 0.0387849
30.54 0.0704962
30.67 0.116123
30.8 0.177838
30.93 0.154505
31.06 0.146964
31.19 0.0462884
31.32 -0.0144048
31.45 0.00574546
31.58 -0.0155197
31.71 -0.00280363
31.84 0.00336257
31.97 0.00389799
32.1 0.0410886
32.23 0.12954
32.36 0.223837
32.49 0.214589
32.62 0.1097
32.75 0.0644183
32.88 -0.00584981
33.01 -0.0043803
33.14 0.00809224
33.27 0.00847519
33.4 0.0274864
33.53 0.0624724
33.66 0.106374
33.79 0.124169
33.92 0.122406
34.05 0.111045
34.18 0.206869
34.31 0.214237
34.44 0.132129
34.57 0.104552
34.7 0.102034
34.83 0.131812
34.96 0.147666
35.09 0.122315
35.22 0.0346714
35.35 0.0390907
35.48 0.131262
35.61 0.177476
35.74 0.146878
35.87 0.0877345
36 0.082787
36.13 0.0714637
36.26 0.0286081
36.39 0.033233
36.52 0.0378491
36.65 0.0306746
36.78 0.0784404
36.91 0.0917506
37.04 0.0943356
37.17 0.111729
37.3 0.0716433
37.43 0.0595178
37.56 0.0218431
37.69 0.0132868
37.82 -0.00474546
37.95 -0.00721733
38.08 -0.00927865
38.21 -0.00813843
38.34 -0.0166832
38.47 -0.00175359
38.6 0.0206928
38.73 0.046271
38.86 0.0855396
38.99 0.09225
39.12 0.0668245
39.25 0.0406997
39.38 0.00066368
39.51 -0.0140639
39.64 -0.000697293
39.77 -0.0160089
39.9 -0.0083242
40.03 -0.00386949
40.16 0.00423577
40.29 0.00283663
40.42 0.0111252
40.55 0.00554309
40.68 0.00151519
40.81 0.000916175
40.94 -0.00342373
41.07 0.0182722
41.2 0.0195164
41.33 0.0464072
41.46 0.046056
41.59 0.00111816
41.72 0.0140442
41.85 0.0199186
41.98 0.0162156
42.11 0.0139107
42.24 -0.0140407
42.37 0.0027338
42.5 0.00343389
42.63 -0.0134726
42.76 -0.0183825
42.89 0.0111213
43.02 0.00710663
43.15 0.00991457
43.28 0.0578078
43.41 0.148323
43.54 0.18137
43.67 0.210102
43.8 0.165837
43.93 0.103928
44.06 0.0792954
44.19 0.0790034
44.32 0.0879421
44.45 0.0744049
44.58 0.0507562
44.71 0.0403681
44.84 0.00168474
44.97 -0.00371381
45.1 0.00551742
45.23 0.00773327
45.36 -0.00635084
45.49 -0.00225344
45.62 0.0121901
45.75 0.0167008
45.88 0.0680487
46.01 0.267845
46.14 0.444196
46.27 0.338515
46.4 0.166291
46.53 0.111082
46.66 0.117842
46.79 0.139913
46.92 0.208318
47.05 0.315879
47.18 0.378573
47.31 0.287001
47.44 0.174373
47.57 0.130486
47.7 0.181482
47.83 0.197926
47.96 0.154
48.09 0.134083
48.22 0.155479
48.35 0.103281
48.48 0.0429854
48.61 0.0326619
48.74 0.0212798
48.87 -0.0142092
49 0.000586775
49.13 0.0238767
49.26 0.0367923
49.39 0.0254639
49.52 0.00209048
49.65 0.0012399
49.78 0.00707206
49.91 -0.00557447
50.04 -0.0120062
50.17 0.00704557
50.3 -0.000665175
50.43 -0.0105832
50.56 -0.00830594
50.69 -0.0217391
50.82 0.00425008
50.95 0.0235817
51.08 0.0141383
51.21 0.0313918
51.34 -0.000335744
51.47 -0.00078182
51.6 -0.00804289
51.73 -0.0154303
51.86 -0.00997342
51.99 -0.0035151
52.12 0.0179963
52.25 0.013131
52.38 0.0154037
52.51 0.0328454
52.64 0.0299177
52.77 0.0534343
52.9 0.0763273
53.03 0.0522487
53.16 0.0276352
53.29 0.0106903
53.42 -0.00787409
53.55 -0.000338809
53.68 -0.0110417
53.81 -0.000348357
53.94 0.012781
54.07 0.0119805
54.2 0.0334395
54.33 0.0527753
54.46 0.0745692
54.59 0.099741
54.72 0.115116
54.85 0.0934039
54.98 0.067837
55.11 0.0542123
55.24 0.0478083
55.37 0.0522966
55.5 0.0547347
55.63 0.0442192
55.76 0.0263355
55.89 0.0171866
56.02 0.00448998
56.15 0.00729337
56.28 0.00102444
56.41 0.00668453
56.54 0.00426636
56.67 -0.0125725
56.8 -0.0113547
56.93 0.011005
57.06 0.0162908
57.19 0.0266526
57.32 0.0457084
57.45 0.0631868
57.58 0.0610419
57.71 0.0307801
57.84 0.0193192
57.97 0.0159224
58.1 0.0249165
58.23 0.0393296
58.36 0.0449867
58.49 0.0604307
58.62 0.07274
58.75 0.073206
58.88 0.0609749
59.01 0.0513344
59.14 0.0380889
59.27 0.00382537
59.4 0.0108641
59.53 0.00747482
59.66 0.00579067
59.79 0.00556817
59.92 0.00467248
60.05 0.0280094
60.18 0.0175841
60.31 -0.0114089
60.44 -0.019612
60.57 0.00199279
60.7 -0.000951363
60.83 0.0111545
60.96 -0.00749151
61.09 -0.00393441
61.22 0.0105151
61.35 -0.000671135
61.48 -0.0162538
61.57 -0.0204283