File: data/xrd/xy/2019-07-01T19_39_31.550325+00_00_LBL_A9.xy
'Id: "" Comment: "Integrate frame 20190716_acnh3_nprop_4flph_05_003.gfrmwith cursor Wedge Cursor #3" Operator: "UC Berkeley" Anode: "Co" Scantype: "TwoTheta" TimePerStep: "450"
13.49 -0.0279622
13.695 0.0700632
13.9 0.0993167
14.105 0.0794996
14.31 0.0655496
14.515 0.0816634
14.72 0.398881
14.925 0.123823
15.13 0.0922315
15.335 0.0788013
15.54 0.0044698
15.745 0.0658585
15.95 0.0108664
16.155 0.0805323
16.36 0.0607772
16.565 0.0417005
16.77 0.0754305
16.975 0.0968268
17.18 0.0183004
17.385 0.0788683
17.59 -0.0175119
17.795 0.075343
18 0.0197618
18.205 0.100491
18.41 0.0512675
18.615 0.0721553
18.82 0.117085
19.025 0.0692961
19.23 0.108668
19.435 0.0937704
19.64 0.0805867
19.845 0.034587
20.05 0.0219359
20.255 0.127742
20.46 0.0528359
20.665 0.0203324
20.87 -0.00133955
21.075 0.0796223
21.28 0.0495563
21.485 0.0311029
21.69 -0.00629891
21.895 0.0403377
22.1 0.05998
22.305 -0.00900036
22.51 0.0371893
22.715 0.0415779
22.92 0.060959
23.125 0.0605887
23.33 0.133259
23.535 0.0835692
23.74 0.0844219
23.945 0.0189686
24.15 0.0873054
24.355 0.00262519
24.56 0.0281191
24.765 0.0363281
24.97 0.0266428
25.175 0.000673188
25.38 0.0106866
25.585 -0.0143192
25.79 0.0763918
25.995 0.00010813
26.2 0.115675
26.405 0.0342995
26.61 0.0581511
26.815 0.0389514
27.02 0.0303542
27.225 0.0583642
27.43 0.128355
27.635 0.20551
27.84 0.0680362
28.045 0.0124918
28.25 0.132579
28.455 0.0806218
28.66 0.0400465
28.865 0.0634587
29.07 0.408624
29.275 0.226813
29.48 0.115511
29.685 0.463191
29.89 0.16602
30.095 1.3553
30.3 1.49795
30.505 0.154761
30.71 0.0709748
30.915 0.0631955
31.12 0.0575271
31.325 0.0335238
31.53 0.00664944
31.735 0.0209076
31.94 0.162241
32.145 0.0613688
32.35 0.0461175
32.555 0.0550016
32.76 0.111073
32.965 0.041186
33.17 0.0196276
33.375 0.00103108
33.58 0.00739189
33.785 0.0379941
33.99 0.176443
34.195 0.0813198
34.4 -0.000768296
34.605 -0.00116678
34.81 0.1163
35.015 0.130702
35.22 0.0356977
35.425 0.0449495
35.63 0.0118654
35.835 -0.014752
36.04 0.0353017
36.245 0.0185431
36.45 0.00792934
36.655 -0.0138904
36.86 0.092359
37.065 0.26165
37.27 0.0801211
37.475 0.00534648
37.68 0.00983326
37.885 0.0256968
38.09 0.0288088
38.295 0.00356684
38.5 0.0220414
38.705 0.0163667
38.91 0.0287371
39.115 0.0998582
39.32 0.0282763
39.525 0.0834336
39.73 0.229222
39.935 1.71652
40.14 1.92534
40.345 0.211069
40.55 0.0629703
40.755 0.0490295
40.96 -0.00552671
41.165 0.0416152
41.37 0.0333914
41.575 0.0748973
41.78 0.0551939
41.985 0.0206853
42.19 0.0440003
42.395 0.0197919
42.6 0.0309397
42.805 0.0333793
43.01 0.0282824
43.215 0.0618152
43.42 0.0101826
43.625 0.0446246
43.83 0.00950288
44.035 0.0122219
44.24 0.000717001
44.445 0.0651563
44.65 -0.00944903
44.855 0.056375
45.06 0.670173
45.265 2.25111
45.47 0.476511
45.675 0.0196458
45.88 0.0539785
46.085 0.404186
46.29 0.817616
46.495 0.197468
46.7 0.102062
46.905 0.0884537
47.11 0.0306119
47.315 0.0196165
47.52 -0.0102869
47.725 0.0166965
47.93 0.0616065
48.135 0.0440875
48.34 0.0133609
48.545 0.0818966
48.75 0.216707
48.955 0.174346
49.16 0.0144758
49.365 -0.00529521
49.57 0.00714937
49.775 0.034262
49.98 0.0533385
50.185 0.0634702
50.39 0.0589133
50.595 0.0217952
50.8 0.0170111
51.005 0.0246147
51.21 -0.0114629
51.415 -0.0110361
51.62 0.0148227
51.825 -0.0118927
52.03 0.0102044
52.235 0.0253414
52.44 0.0383344
52.645 0.107944
52.85 0.50577
53.055 1.12176
53.26 0.483388
53.465 0.045674
53.67 0.0236237
53.875 -0.0142276
54.08 -0.0143931
54.285 0.0137037
54.49 0.000682494
54.695 -0.0173215
54.9 -0.0113289
55.105 0.0163875
55.31 -0.0181495
55.515 -0.00807346
55.72 0.0415031
55.925 0.0829315
56.13 0.243846
56.335 0.213056
56.54 0.0588687
56.745 -0.00202231
56.95 0.0211717
57.155 0.0103611
57.36 0.00379812
57.565 0.00581131
57.77 0.00910658
57.975 0.00632268
58.18 0.0251564
58.385 0.0622806
58.59 0.03266
58.795 0.0580864
59 0.0231145
59.205 0.00207505
59.41 0.0627462
59.615 0.0342102
59.82 0.0712903
60.025 0.0423318
60.23 0.045945
60.435 0.0185021
60.64 0.0157854
60.845 0.00568094
61.05 0.0403609
61.255 0.114269
61.46 0.441067
61.665 1.0405
61.87 0.878784
62.075 0.176023
62.28 0.0756343
62.485 0.107061
62.69 0.265425
62.895 0.236614
63.1 0.103509
63.305 0.0244808
63.51 -0.0138681
63.715 0.0226951
63.92 0.0197809
64.125 0.0303213
64.33 0.00658304
64.535 -0.0124755
64.74 0.00810862
64.945 0.00278629
65.15 0.00718387
65.355 0.00769458
65.56 0.00340699
65.765 0.00375224
65.97 -0.000375407
66.175 0.0140874
66.38 0.114271
66.585 0.24314
66.79 0.297649
66.995 0.140507
67.2 0.0132777
67.405 -0.00811495
67.61 0.00420495
67.815 -0.0072338
68.02 0.0825213
68.225 0.127958
68.43 0.117553
68.635 0.0210991
68.84 0.0173092
69.045 0.0565801
69.25 0.00598445
69.455 0.0118645
69.66 0.0138543
69.865 0.0291554
70.07 0.0205532
70.275 0.0112856
70.48 0.0224645
70.685 0.0227166
70.89 0.0193748
71.095 0.0176678
71.3 0.0272607
71.505 0.00580913
71.71 0.0104792
71.915 0.00937832
72.12 0.0317616
72.325 0.00904664
72.53 0.0156465
72.735 0.0648578
72.94 0.115522
73.145 0.101993
73.35 0.0478579
73.555 0.00177831
73.76 0.00909808
73.965 0.0200646
74.17 0.026018
74.375 0.00438727
74.525 -0.0179576