File: data/xrd/xy/2019-09-30T17_18_05.146721+00_00_LBL_G4.xy
'Id: "" Comment: "Integrate frame diethylpropane13dia_01_001.gfrmwith cursor Wedge Cursor #2" Operator: "UC Berkeley" Anode: "Co" Scantype: "TwoTheta" TimePerStep: "600"
4.045 -0.0238028
4.245 0.0790411
4.445 0.103637
4.645 0.0934177
4.845 0.0723598
5.045 0.0475846
5.245 0.0479693
5.445 0.0444153
5.645 0.0400139
5.845 0.0515203
6.045 0.0768785
6.245 0.0971944
6.445 0.0707943
6.645 0.0385351
6.845 0.0666943
7.045 0.0557866
7.245 0.0752129
7.445 0.029577
7.645 0.0500191
7.845 0.0364536
8.045 0.0367703
8.245 0.0389255
8.445 0.0201747
8.645 0.0888546
8.845 0.0239176
9.045 0.0340223
9.245 0.0185224
9.445 0.00770809
9.645 0.0398168
9.845 0.374892
10.045 0.00291142
10.245 0.0431541
10.445 0.39886
10.645 0.0206855
10.845 0.00767051
11.045 0.00127697
11.245 0.0598877
11.445 0.0472324
11.645 0.00930777
11.845 0.0960052
12.045 0.0995658
12.245 0.0353108
12.445 0.0292201
12.645 0.0313153
12.845 0.0351683
13.045 0.0196596
13.245 0.0779817
13.445 0.0458692
13.645 0.0189615
13.845 0.0323446
14.045 0.113223
14.245 0.00241654
14.445 -0.0165265
14.645 -0.0174925
14.845 2.7914e-06
15.045 0.0278801
15.245 -0.00277151
15.445 0.0256749
15.645 -0.00662745
15.845 0.0394274
16.045 -0.00368645
16.245 -0.0223201
16.445 0.0146847
16.645 0.10848
16.845 0.0646196
17.045 0.0518193
17.245 0.00667366
17.445 0.0414408
17.645 0.0403043
17.845 -0.00740268
18.045 0.042656
18.245 0.0533923
18.445 0.0768396
18.645 0.0272878
18.845 0.0128355
19.045 0.0453688
19.245 0.0819532
19.445 0.0104763
19.645 0.135028
19.845 0.0395585
20.045 -0.00207906
20.245 0.0295057
20.445 0.000933053
20.645 0.108413
20.845 -0.0108315
21.045 0.0630589
21.245 -0.00828686
21.445 0.0347075
21.645 0.000185884
21.845 0.00869448
22.045 0.00269383
22.245 0.00580934
22.445 0.0108125
22.645 0.0248069
22.845 0.0735164
23.045 0.096477
23.245 0.0180252
23.445 0.00204104
23.645 0.0410095
23.845 0.0731149
24.045 0.00216327
24.245 -0.00870335
24.445 -0.0126024
24.645 0.0418819
24.845 0.14696
25.045 0.00148289
25.245 -0.00299924
25.445 -0.00420104
25.645 -0.00099168
25.845 0.0220043
26.045 0.00160268
26.245 0.0221982
26.445 -0.0143095
26.645 0.170303
26.845 0.152414
27.045 0.158014
27.245 0.00497614
27.445 0.0659976
27.645 0.123647
27.845 0.111033
28.045 0.023556
28.245 0.0635931
28.445 -0.00244706
28.645 0.121862
28.845 0.417197
29.045 0.0451342
29.245 0.017481
29.445 0.264315
29.645 0.604795
29.845 0.184016
30.045 0.0914022
30.245 0.158515
30.445 0.189634
30.645 0.12982
30.845 0.00902737
31.045 -0.0125359
31.245 -0.00670459
31.445 0.0312424
31.645 0.242457
31.845 0.600296
32.045 0.109544
32.245 0.0486203
32.445 0.131971
32.645 0.253754
32.845 0.253504
33.045 0.0765824
33.245 0.0307964
33.445 -0.0130118
33.645 0.0147349
33.845 0.0917544
34.045 0.0191859
34.245 0.0318424
34.445 0.0586431
34.645 0.0600625
34.845 0.0625659
35.045 0.137892
35.245 0.201218
35.445 0.396157
35.645 0.11287
35.845 0.0488677
36.045 0.0768927
36.245 -0.000108213
36.445 0.0203443
36.645 0.116139
36.845 0.74122
37.045 0.227813
37.245 0.0616281
37.445 0.0553676
37.645 0.0449736
37.845 0.0609974
38.045 0.0268921
38.245 0.0310723
38.445 -0.0137494
38.645 0.00801953
38.845 0.0985869
39.045 0.145374
39.245 -0.00163237
39.445 0.000571986
39.645 0.014931
39.845 0.00771784
40.045 0.0294922
40.245 0.0367297
40.445 0.0776839
40.645 0.0685207
40.845 0.032346
41.045 0.0927528
41.245 0.0588518
41.445 0.0160478
41.645 -0.0114812
41.845 0.0119018
42.045 0.00358887
42.245 -0.0109436
42.445 0.0213163
42.645 0.0966387
42.845 0.0950089
43.045 0.0372771
43.245 0.0534234
43.445 0.176649
43.645 0.0407972
43.845 0.013511
44.045 0.0307182
44.245 -0.0172542
44.445 0.00906917
44.645 -0.0136774
44.845 -0.00872006
45.045 -0.0126119
45.245 0.036832
45.445 0.13349
45.645 0.264949
45.845 0.135228
46.045 0.037242
46.245 0.0392438
46.445 0.123352
46.645 0.0821187
46.845 0.0136018
47.045 0.0487564
47.245 0.0813696
47.445 -0.00325702
47.645 -0.012159
47.845 0.0537132
48.045 0.530811
48.245 0.337599
48.445 0.0801006
48.645 0.0400942
48.845 0.0211253
49.045 0.0441985
49.245 0.0154999
49.445 0.0489452
49.645 0.0325737
49.845 0.0353245
50.045 -0.00403643
50.245 0.0065328
50.445 0.0212965
50.645 0.0155186
50.845 0.0865488
51.045 0.117694
51.245 0.0438093
51.445 0.0765333
51.645 0.0615227
51.845 0.0263997
52.045 0.0416367
52.245 0.0549702
52.445 0.00607239
52.645 0.0160315
52.845 0.0365447
53.045 0.0660612
53.245 0.0676568
53.445 0.0202313
53.645 0.0465527
53.845 0.0416708
54.045 0.0363007
54.245 0.0448632
54.445 0.000898693
54.645 0.032944
54.845 0.0581533
55.045 0.0303034
55.245 0.0325749
55.445 0.00307642
55.645 -0.0175107
55.845 -0.0149307
56.045 -0.00773881
56.245 0.0182979
56.445 7.20604e-05
56.645 0.0373168
56.845 0.11973
57.045 0.136645
57.245 0.131161
57.445 0.0344064
57.645 0.0251851
57.845 0.0187694
58.045 0.00393738
58.245 -0.00846739
58.445 0.0281735
58.645 0.0695746
58.845 0.137301
59.045 0.0785495
59.245 0.0381746
59.445 0.00512339
59.645 -0.00572276
59.845 -0.0103163
60.045 0.0244966
60.245 0.0136132
60.445 0.0131926
60.645 0.00916334
60.845 0.00543029
61.045 0.0153628
61.245 0.0128539
61.445 -0.00414069
61.645 0.0071817
61.845 0.0107158
62.045 0.0143209
62.245 0.0137321
62.445 0.0212356
62.645 0.0319868
62.845 0.0257435
63.045 0.00575588
63.245 0.00603629
63.445 0.00343179
63.645 0.0173913
63.845 0.00339582
63.995 -0.0166257