File: data/xrd/xy/2019-05-29T19_56_50.129046+00_00_LBL_E2.xy
'Id: "" Comment: "Integrate frame 4Fluorophenyl_04_002.gfrmwith cursor Wedge Cursor #4" Operator: "UC Berkeley" Anode: "Co" Scantype: "TwoTheta" TimePerStep: "600"
14.43 -0.0275238
14.595 0.00628408
14.76 -0.00409363
14.925 0.047946
15.09 0.0149788
15.255 0.024765
15.42 0.0482216
15.585 0.0388445
15.75 0.0353318
15.915 0.0381894
16.08 0.0189494
16.245 0.0172681
16.41 0.0112838
16.575 0.0169447
16.74 -0.000242076
16.905 0.0375232
17.07 0.00932642
17.235 0.0351843
17.4 0.0378411
17.565 0.00983509
17.73 0.00183914
17.895 0.0493317
18.06 0.0175513
18.225 0.00119866
18.39 0.0465448
18.555 0.0432402
18.72 0.0599425
18.885 0.0297348
19.05 0.00676178
19.215 0.0158284
19.38 0.0538481
19.545 0.0316528
19.71 0.00923482
19.875 0.0264875
20.04 0.00490019
20.205 0.0100992
20.37 -0.0155842
20.535 0.00516192
20.7 0.017165
20.865 0.0191374
21.03 0.0240658
21.195 0.00289642
21.36 0.0114198
21.525 0.0327559
21.69 -0.0149382
21.855 0.00895939
22.02 -0.00418824
22.185 0.00617585
22.35 0.0173155
22.515 0.0401296
22.68 -0.0154782
22.845 0.0114547
23.01 0.027498
23.175 0.0164528
23.34 0.0143465
23.505 0.0332562
23.67 0.0513396
23.835 -0.0109981
24 0.0194
24.165 0.0359486
24.33 0.00298429
24.495 0.0359708
24.66 0.0394942
24.825 0.0704453
24.99 1.04068
25.155 0.284736
25.32 0.0421514
25.485 0.0204725
25.65 0.0322687
25.815 0.0202288
25.98 0.0143815
26.145 0.035922
26.31 0.035413
26.475 0.0310929
26.64 0.0397848
26.805 0.0273904
26.97 0.019935
27.135 0.14657
27.3 9.97571e-05
27.465 -0.000700806
27.63 -0.0164631
27.795 0.0129943
27.96 0.0201369
28.125 0.0412849
28.29 0.0112463
28.455 0.017617
28.62 0.0376332
28.785 0.0694448
28.95 0.0441142
29.115 -0.00406238
29.28 0.0295734
29.445 0.0322242
29.61 0.039594
29.775 0.0412674
29.94 0.024448
30.105 0.0145832
30.27 0.0586069
30.435 0.274812
30.6 0.102864
30.765 0.0218184
30.93 0.0479003
31.095 0.0495816
31.26 0.118744
31.425 1.13545
31.59 0.409123
31.755 0.13159
31.92 0.109274
32.085 0.0686051
32.25 0.0154977
32.415 -0.0198458
32.58 0.00383914
32.745 0.0178651
32.91 0.00332259
33.075 0.0129605
33.24 -0.0166136
33.405 0.00181242
33.57 0.00922676
33.735 0.0398029
33.9 0.471056
34.065 0.305622
34.23 0.157738
34.395 0.00448726
34.56 0.000245887
34.725 -0.00577137
34.89 0.0242044
35.055 0.027624
35.22 0.0100219
35.385 0.00580482
35.55 -0.00626008
35.715 0.0151316
35.88 -0.0163555
36.045 -0.00090797
36.21 -0.0143023
36.375 -0.00672862
36.54 0.0112745
36.705 0.0376866
36.87 0.0084422
37.035 0.0159146
37.2 0.0287863
37.365 0.232616
37.53 0.483647
37.695 0.328942
37.86 0.874959
38.025 5.82096
38.19 0.675206
38.355 0.221082
38.52 0.0912823
38.685 0.0361004
38.85 0.0240988
39.015 0.00297916
39.18 0.0233682
39.345 0.010567
39.51 0.0141122
39.675 0.0871353
39.84 0.195446
40.005 0.269564
40.17 0.0913838
40.335 -0.00697407
40.5 -0.0114165
40.665 0.0140066
40.83 0.158181
40.995 0.114012
41.16 0.0169512
41.325 -0.00152986
41.49 -0.00474478
41.655 -0.0199573
41.82 0.0168232
41.985 -0.0111109
42.15 0.00434411
42.315 -0.0110691
42.48 -0.00290816
42.645 -0.00232562
42.81 0.00634418
42.975 -0.00231117
43.14 -0.0119874
43.305 0.00727928
43.47 0.095254
43.635 0.0299169
43.8 0.00917867
43.965 0.00250007
44.13 -0.0143655
44.295 0.0491548
44.46 0.045762
44.625 0.112793
44.79 0.114843
44.955 0.661378
45.12 0.204539
45.285 0.0843638
45.45 0.189603
45.615 0.0519345
45.78 -0.0187747
45.945 -0.00855373
46.11 0.0145703
46.275 0.0612638
46.44 0.0116567
46.605 0.00207581
46.77 0.00560153
46.935 0.00506328
47.1 -0.00628219
47.265 0.0202979
47.43 0.0240125
47.595 0.00538363
47.76 -0.00760069
47.925 0.0445533
48.09 0.289263
48.255 0.0684657
48.42 -0.00363871
48.585 -0.00135812
48.75 0.0249247
48.915 0.428318
49.08 0.300556
49.245 0.334642
49.41 0.0490295
49.575 0.0582032
49.74 0.0508837
49.905 0.0111907
50.07 0.0120634
50.235 -0.00423615
50.4 0.0273812
50.565 0.0793466
50.73 0.00574807
50.895 0.00794426
51.06 0.0235595
51.225 0.104404
51.39 0.0724086
51.555 0.103249
51.72 0.277167
51.885 0.0492015
52.05 -0.00328318
52.215 -0.0153588
52.38 0.00263364
52.545 -0.00689792
52.71 -0.00563477
52.875 -0.00272313
53.04 0.0155523
53.205 -0.0163961
53.37 -0.0177323
53.535 -0.0069475
53.7 0.0464452
53.865 0.0487462
54.03 0.05922
54.195 0.00384816
54.36 0.000716773
54.525 0.171836
54.69 0.100669
54.855 0.0654596
55.02 0.0103008
55.185 0.0675234
55.35 0.0486676
55.515 0.0170493
55.68 -0.0109346
55.845 0.0413516
56.01 0.166428
56.175 0.0350807
56.34 0.0114729
56.505 0.013263
56.67 -0.00276818
56.835 -0.00691024
57 -0.00194801
57.165 0.010139
57.33 0.00793001
57.495 0.0220618
57.66 0.0114941
57.825 -0.00210545
57.99 -0.0107695
58.155 0.000932289
58.32 -0.00413754
58.485 0.0409536
58.65 0.0777752
58.815 0.00742907
58.98 -0.00544062
59.145 -0.00668743
59.31 0.00680215
59.475 0.0363827
59.64 0.00444359
59.805 -0.00415729
59.97 0.0196125
60.135 -0.010709
60.3 -0.013254
60.465 0.00922622
60.63 0.0534291
60.795 0.0297061
60.96 -0.00989798
61.125 -0.00843327
61.29 0.0361315
61.455 0.0117351
61.62 -0.0110582
61.785 0.0133771
61.95 0.00270113
62.115 -0.014948
62.28 0.0136794
62.445 0.0316551
62.61 0.0791124
62.775 0.0579477
62.94 0.0141624
63.105 -0.003236
63.27 0.0530056
63.435 0.0469217
63.6 0.00551207
63.765 -0.0160535
63.82 -0.0185292