File: data/xrd/xy/2019-06-19T14_53_56.517003+00_00_LBL_C11.xy
'Id: "" Comment: "Integrate frame perovskite_04_001.gfrmwith cursor Wedge Cursor #4" Operator: "UC Berkeley" Anode: "Co" Scantype: "TwoTheta" TimePerStep: "400"
14.065 -0.0319397
14.26 0.0585561
14.455 0.051135
14.65 0.034483
14.845 0.0943924
15.04 0.0551148
15.235 0.0943147
15.43 0.028616
15.625 0.0228005
15.82 0.0174253
16.015 0.0175092
16.21 0.0612703
16.405 0.0619447
16.6 0.0174785
16.795 0.0302831
16.99 0.082919
17.185 0.0234811
17.38 0.032174
17.575 0.0725057
17.77 0.00118386
17.965 0.0420292
18.16 0.0415945
18.355 0.0756092
18.55 0.0896604
18.745 0.13402
18.94 0.0516425
19.135 0.0718607
19.33 0.0348314
19.525 0.0999325
19.72 0.0477731
19.915 0.0555228
20.11 0.0283847
20.305 0.430817
20.5 0.820868
20.695 0.0517443
20.89 0.0644005
21.085 0.0625897
21.28 0.0595592
21.475 -0.00687421
21.67 0.0299851
21.865 0.0608967
22.06 -0.0206086
22.255 0.0228433
22.45 0.0536545
22.645 0.0637538
22.84 0.0510384
23.035 0.0282074
23.23 -0.0142524
23.425 0.068905
23.62 -0.000772173
23.815 0.0368035
24.01 0.0315534
24.205 0.0741203
24.4 0.0338855
24.595 0.0305037
24.79 0.0944469
24.985 0.0463274
25.18 0.211477
25.375 0.282798
25.57 0.0589297
25.765 0.0292412
25.96 0.0284964
26.155 0.0365619
26.35 0.202758
26.545 0.362668
26.74 0.0141355
26.935 -0.0299933
27.13 0.037024
27.325 0.0259334
27.52 0.00723557
27.715 0.0338172
27.91 0.291491
28.105 0.0397801
28.3 0.030573
28.495 0.00363619
28.69 0.0433839
28.885 0.0295728
29.08 0.0206447
29.275 0.0560435
29.47 0.579656
29.665 0.304587
29.86 0.0695149
30.055 0.0473775
30.25 -0.0163871
30.445 0.0377951
30.64 0.0115231
30.835 0.0245276
31.03 -0.000517516
31.225 0.0427951
31.42 0.0248158
31.615 0.0281591
31.81 0.0670116
32.005 0.016116
32.2 0.0191881
32.395 0.00990348
32.59 0.0123403
32.785 -0.0145596
32.98 0.0111206
33.175 0.00598475
33.37 0.0189282
33.565 0.0611605
33.76 0.278393
33.955 0.886927
34.15 0.113317
34.345 0.0202705
34.54 0.0170049
34.735 0.0133592
34.93 0.0183872
35.125 0.015628
35.32 -0.0223916
35.515 -0.017645
35.71 0.00389217
35.905 0.113752
36.1 0.125607
36.295 0.0181754
36.49 0.00271635
36.685 -0.0213339
36.88 0.00210415
37.075 0.0102622
37.27 -0.00422213
37.465 0.0005319
37.66 0.00718446
37.855 0.031495
38.05 0.0871856
38.245 0.69968
38.44 0.608936
38.635 0.0916498
38.83 0.0471237
39.025 -0.0183488
39.22 -0.00483814
39.415 0.0173015
39.61 0.0102771
39.805 -0.00646204
40 0.0822858
40.195 0.0493383
40.39 -0.00621584
40.585 -0.00256289
40.78 0.00473787
40.975 -0.00831921
41.17 -0.00995092
41.365 -0.0070878
41.56 0.0148435
41.755 0.0089862
41.95 0.016969
42.145 0.622558
42.34 0.124015
42.535 0.00879629
42.73 0.0276303
42.925 0.0143941
43.12 0.0111904
43.315 0.0587988
43.51 0.00195051
43.705 0.015531
43.9 0.00597925
44.095 0.186056
44.29 0.469589
44.485 0.0198428
44.68 -0.0166981
44.875 -0.00757653
45.07 0.0113054
45.265 0.0603525
45.46 0.00200757
45.655 -0.0129107
45.85 -0.00121353
46.045 0.00637284
46.24 -0.00220081
46.435 0.0179669
46.63 -0.0114391
46.825 0.00408275
47.02 0.0132992
47.215 0.0412427
47.41 0.0391433
47.605 0.0255995
47.8 -0.00435883
47.995 0.0249563
48.19 -0.0156503
48.385 0.00854458
48.58 0.0827703
48.775 0.0243384
48.97 0.056779
49.165 0.0973632
49.36 0.0269521
49.555 0.036691
49.75 -0.00828299
49.945 -0.0104051
50.14 -0.00421089
50.335 0.009527
50.53 -0.0152628
50.725 0.015807
50.92 -0.0120529
51.115 0.00590524
51.31 0.0170138
51.505 0.00788104
51.7 -0.00875957
51.895 -0.0196172
52.09 -0.0084112
52.285 -0.0183155
52.48 -0.00445836
52.675 -0.000487336
52.87 0.0487227
53.065 0.0311768
53.26 0.0167346
53.455 0.0413788
53.65 -0.00408428
53.845 -0.0056222
54.04 -0.0173236
54.235 0.0297915
54.43 0.00347522
54.625 -0.00410575
54.82 -0.00476983
55.015 0.000726268
55.21 0.00906729
55.405 0.015747
55.6 0.0213717
55.795 0.00891676
55.99 0.00913498
56.185 0.00297861
56.38 0.0294325
56.575 -0.000813406
56.77 -0.00216182
56.965 -0.00597331
57.16 0.00844302
57.355 0.0134819
57.55 -0.0161401
57.745 0.0207904
57.94 0.20407
58.135 0.278918
58.33 0.0690922
58.525 0.0266291
58.72 0.00488091
58.915 0.0116919
59.11 0.000185439
59.305 -0.00393464
59.5 -0.000870692
59.695 0.0250943
59.89 0.0173238
60.085 -0.0152261
60.28 0.0131722
60.475 0.00996815
60.67 0.000130327
60.865 0.0234017
61.06 0.0129884
61.255 0.0313726
61.45 0.28305
61.645 0.274532
61.84 0.0250332
62.035 0.0475488
62.23 0.0181394
62.425 0.00849606
62.62 0.0101312
62.815 0.0580211
63.01 0.0216322
63.205 0.0179329
63.4 0.00954409
63.595 0.011608
63.79 0.0133221
63.985 0.0144259
64.18 -0.0163207
64.375 0.0222586
64.57 0.00182693
64.765 0.0338378
64.96 -0.00502261
65.155 -0.00572642
65.35 0.00667759
65.545 -0.0143122
65.74 0.0235959
65.935 0.059424
66.13 0.00968178
66.325 0.0396785
66.52 0.0823038
66.715 0.219518
66.91 0.14305
67.105 0.0757267
67.3 0.0432667
67.495 0.0261282
67.69 0.0417401
67.885 0.0202757
68.08 -0.0162127
68.275 -0.00423215
68.47 -0.0140387
68.665 -0.0166327
68.86 0.00670839
69.055 0.0114898
69.25 0.0129555
69.445 0.00711968
69.64 -0.00433334
69.835 0.00718624
70.03 0.0370055
70.225 0.0918133
70.42 0.0111248
70.615 -0.00473186
70.81 0.0150724
71.005 -0.016658
71.2 0.0186341
71.395 0.119747
71.59 0.452163
71.785 0.0855219
71.98 0.0039722
72.095 -0.0200481