File: data/xrd/xy/2019-06-18T20_54_55.536969+00_00_LBL_A1.xy
'Id: "" Comment: "Integrate frame 20190723_4triFMePh_01_002.gfrmwith cursor Wedge Cursor #1" Operator: "UC Berkeley" Anode: "Co" Scantype: "TwoTheta" TimePerStep: "600"
20.5 -0.0245228
20.685 0.0572325
20.87 0.056128
21.055 0.0675072
21.24 0.0695987
21.425 0.0606135
21.61 0.12743
21.795 0.0629168
21.98 0.0151997
22.165 0.0486073
22.35 -0.00319664
22.535 0.05639
22.72 0.0116244
22.905 0.0796914
23.09 0.0455417
23.275 0.0297602
23.46 0.0548922
23.645 0.0687112
23.83 0.0506378
24.015 0.0576912
24.2 0.0342487
24.385 0.0184192
24.57 -0.021996
24.755 0.0208396
24.94 0.0600171
25.125 0.139666
25.31 0.0504263
25.495 0.122669
25.68 0.0268789
25.865 0.0343083
26.05 0.196809
26.235 0.766804
26.42 0.111375
26.605 0.0683289
26.79 0.0595514
26.975 0.00794986
27.16 0.00951459
27.345 0.0746618
27.53 0.0115666
27.715 0.0455563
27.9 0.0580633
28.085 0.0239817
28.27 -0.00361432
28.455 0.0508386
28.64 0.0997878
28.825 0.021485
29.01 0.071587
29.195 0.0451438
29.38 0.0914956
29.565 0.0496516
29.75 0.00807368
29.935 0.102166
30.12 2.28891
30.305 5.21753
30.49 0.197541
30.675 0.033728
30.86 0.0305016
31.045 0.0603291
31.23 0.0192544
31.415 0.0829457
31.6 0.0397319
31.785 0.0255182
31.97 0.0393262
32.155 0.0163765
32.34 0.0179709
32.525 0.0577563
32.71 0.0650823
32.895 0.00978074
33.08 0.0536433
33.265 0.0457917
33.45 0.0630681
33.635 0.0321668
33.82 0.0436892
34.005 0.0270454
34.19 0.0087175
34.375 0.00326362
34.56 0.0374657
34.745 0.0160298
34.93 0.0350016
35.115 0.0325021
35.3 0.00682978
35.485 -0.00926119
35.67 0.0249299
35.855 -0.00117655
36.04 0.00275402
36.225 0.00495813
36.41 0.0577872
36.595 0.00687728
36.78 0.0300216
36.965 0.0514494
37.15 0.0201589
37.335 0.0266439
37.52 0.0332907
37.705 -0.00247013
37.89 0.0605654
38.075 0.00882354
38.26 0.0200843
38.445 0.0140307
38.63 0.0626805
38.815 -0.00434919
39 -0.0054851
39.185 0.00183865
39.37 0.0401202
39.555 0.0289665
39.74 0.0944699
39.925 0.657749
40.11 2.39841
40.295 0.322974
40.48 0.0586402
40.665 -0.00369708
40.85 0.031887
41.035 0.0221782
41.22 0.0276339
41.405 0.0539028
41.59 0.0643872
41.775 0.00225297
41.96 0.0140836
42.145 0.0380155
42.33 0.0534625
42.515 0.029723
42.7 0.0821228
42.885 3.7515e-05
43.07 0.0257517
43.255 0.0316421
43.44 0.00603848
43.625 0.0403576
43.81 0.0857844
43.995 0.0313499
44.18 0.0153514
44.365 0.0569361
44.55 0.0600268
44.735 0.0344355
44.92 0.0530567
45.105 0.0210097
45.29 0.232391
45.475 0.052674
45.66 0.014561
45.845 0.102097
46.03 0.504288
46.215 6.28878
46.4 6.57094
46.585 0.734169
46.77 0.0545717
46.955 0.0351583
47.14 0.0255093
47.325 0.00151519
47.51 0.00889826
47.695 0.0179273
47.88 0.0500076
48.065 0.0769075
48.25 0.0575458
48.435 0.0234596
48.62 0.182921
48.805 1.13268
48.99 0.716902
49.175 0.0768222
49.36 0.034598
49.545 0.0311301
49.73 0.021709
49.915 0.0400779
50.1 0.0467701
50.285 0.0474114
50.47 0.00228999
50.655 0.00697341
50.84 0.0255586
51.025 0.0306354
51.21 0.000676847
51.395 0.0176031
51.58 0.0156668
51.765 0.0202478
51.95 0.00473662
52.135 0.0120568
52.32 -0.00686885
52.505 0.0206829
52.69 -0.00400682
52.875 0.153462
53.06 0.452888
53.245 0.316768
53.43 0.0407226
53.615 0.00668209
53.8 0.0405324
53.985 0.199152
54.17 0.105647
54.355 0.0311191
54.54 0.0331955
54.725 0.0246714
54.91 0.0161913
55.095 0.00766369
55.28 0.0261202
55.465 0.0145729
55.65 0.000202551
55.835 0.0905835
56.02 0.390897
56.205 2.07401
56.39 2.08781
56.575 0.640618
56.76 0.0460606
56.945 -0.014524
57.13 -0.010557
57.315 0.0147837
57.5 0.0393419
57.685 0.0379803
57.87 0.0433158
58.055 0.0166372
58.24 -0.0107008
58.425 0.0111283
58.61 -0.00184044
58.795 0.0548682
58.98 0.0359362
59.165 0.00319508
59.35 0.0117704
59.535 -0.00922009
59.72 0.0411391
59.905 0.0386375
60.09 0.0306442
60.275 0.0414683
60.46 -0.0022454
60.645 0.014219
60.83 0.0263459
61.015 0.020817
61.2 0.0108465
61.385 0.0207492
61.57 0.100256
61.755 0.171341
61.94 0.107466
62.125 0.0196348
62.31 0.0431471
62.495 0.0728787
62.68 0.733495
62.865 1.14569
63.05 0.734607
63.235 0.175843
63.42 0.0447133
63.605 0.0225937
63.79 0.0174805
63.975 -0.00222262
64.16 -0.000722477
64.345 0.0180268
64.53 0.0178822
64.715 0.0171905
64.9 0.0493749
65.085 0.00175399
65.27 0.0276805
65.455 0.0247814
65.64 0.0207725
65.825 0.0148131
66.01 0.028233
66.195 0.00786112
66.38 0.0323272
66.565 0.204986
66.75 0.307257
66.935 0.278917
67.12 0.0369242
67.305 -0.00437438
67.49 0.019032
67.675 0.042477
67.86 -0.0066945
68.045 0.0207621
68.23 0.0439833
68.415 0.0386802
68.6 -0.00282005
68.785 0.00516487
68.97 0.0194707
69.155 -0.0076813
69.34 0.0279946
69.525 0.0266379
69.71 0.00665267
69.895 0.024473
70.08 0.0125196
70.265 0.00731528
70.45 0.026067
70.635 0.000765544
70.82 0.0310152
71.005 0.0193165
71.19 0.0380137
71.375 0.0202355
71.56 -0.00331424
71.745 0.0111401
71.93 0.0192621
72.115 0.0276836
72.3 0.03792
72.485 0.00792234
72.67 0.0156105
72.855 0.110472
73.04 0.193392
73.225 0.148484
73.41 0.031415
73.595 0.0398233
73.78 0.0626011
73.965 0.0406169
74.15 0.0200475
74.335 -0.00290748
74.52 0.0124902
74.705 0.0175052
74.89 0.0395847
75.075 0.0380376
75.26 0.000309521
75.445 0.0340386
75.63 0.112327
75.725 -0.0357516