File: data/xrd/xy/2019-03-19T18_02_18.665051+00_00_LBL.xy
'Id: "" Comment: "Integrate frame pyrro0_00_003.gfrmwith cursor Wedge Cursor #1" Operator: "UC Berkeley" Anode: "Co" Scantype: "TwoTheta" TimePerStep: "1200.002"
13.645 -0.0188664
13.845 0.0101238
14.045 0.0458191
14.245 0.0497001
14.445 0.0103776
14.645 0.032304
14.845 0.0243792
15.045 0.0284644
15.245 0.056687
15.445 0.0478002
15.645 0.0343609
15.845 0.028705
16.045 0.0363442
16.245 0.0444003
16.445 0.0375111
16.645 0.0391803
16.845 0.0666433
17.045 0.0457961
17.245 0.0337773
17.445 0.0691239
17.645 0.0617369
17.845 0.0500386
18.045 0.0741706
18.245 0.0846156
18.445 0.0914685
18.645 0.0557456
18.845 0.0947427
19.045 0.0954745
19.245 0.119019
19.445 0.12262
19.645 0.132908
19.845 0.122859
20.045 0.104089
20.245 0.159456
20.445 0.150833
20.645 0.152452
20.845 0.164698
21.045 0.168232
21.245 0.208011
21.445 0.19664
21.645 0.216658
21.845 0.205816
22.045 0.251525
22.245 0.25892
22.445 0.286649
22.645 0.291405
22.845 0.266421
23.045 0.320711
23.245 0.339553
23.445 0.307088
23.645 0.337267
23.845 0.317038
24.045 0.348459
24.245 0.383682
24.445 0.333806
24.645 0.383423
24.845 0.422649
25.045 0.43557
25.245 0.515519
25.445 0.628867
25.645 0.993337
25.845 2.53337
26.045 6.77893
26.245 4.42733
26.445 1.13477
26.645 0.535932
26.845 0.35648
27.045 0.290272
27.245 0.224393
27.445 0.188521
27.645 0.170136
27.845 0.163584
28.045 0.127493
28.245 0.1179
28.445 0.18794
28.645 0.282553
28.845 0.0987888
29.045 0.0968154
29.245 0.0539306
29.445 0.0719794
29.645 0.0435469
29.845 0.0867552
30.045 0.0442287
30.245 0.0369316
30.445 0.0846944
30.645 0.0675422
30.845 0.0388632
31.045 0.0284438
31.245 0.0109382
31.445 0.0175467
31.645 0.0376085
31.845 0.0152035
32.045 0.0286201
32.245 0.0095837
32.445 0.0143734
32.645 0.0101036
32.845 -0.00292229
33.045 0.000891831
33.245 -0.00269185
33.445 -0.00381213
33.645 0.00395431
33.845 0.0316315
34.045 0.0828585
34.245 0.0390226
34.445 0.0230911
34.645 -0.00256347
34.845 -0.00112097
35.045 0.00372268
35.245 -0.00588031
35.445 0.00161075
35.645 0.00256742
35.845 -0.00851915
36.045 -0.00780616
36.245 0.0210629
36.445 0.0556496
36.645 0.0211871
36.845 0.00318474
37.045 -0.0115273
37.245 0.00731525
37.445 -0.00490565
37.645 0.0207672
37.845 0.0186461
38.045 0.0365625
38.245 0.0473969
38.445 0.0769849
38.645 0.139243
38.845 0.266895
39.045 0.520123
39.245 0.909678
39.445 1.16573
39.645 1.05948
39.845 0.688275
40.045 0.32005
40.245 0.145838
40.445 0.0810529
40.645 0.0661395
40.845 0.0644543
41.045 0.0247839
41.245 0.0186953
41.445 0.00793941
41.645 0.000835773
41.845 0.0120118
42.045 0.0015563
42.245 0.00703619
42.445 0.000830931
42.645 0.00592385
42.845 0.00512957
43.045 0.0346648
43.245 0.0289305
43.445 0.00685562
43.645 0.0256903
43.845 -0.00156754
44.045 -0.00208543
44.245 0.00489476
44.445 0.009467
44.645 0.00193677
44.845 0.0127606
45.045 0.0767472
45.245 0.123014
45.445 0.125772
45.645 0.0496701
45.845 0.0701477
46.045 0.0990576
46.245 0.0842388
46.445 0.0387553
46.645 0.0298428
46.845 0.138744
47.045 0.263904
47.245 0.200229
47.445 0.238875
47.645 0.0933075
47.845 0.0151376
48.045 0.00592617
48.245 0.00200504
48.445 -0.0038325
48.645 0.00406568
48.845 -0.00261796
49.045 0.00855669
49.245 0.00660685
49.445 0.0119098
49.645 0.0273299
49.845 0.0262218
50.045 0.00849148
50.245 -0.00169219
50.445 0.000178402
50.645 0.00600719
50.845 0.00247208
51.045 -0.00391531
51.245 0.00271982
51.445 -0.00729885
51.645 0.0104831
51.845 0.0151569
52.045 0.0146698
52.245 0.0358741
52.445 0.0453962
52.645 0.0410054
52.845 0.0358518
53.045 0.00940631
53.245 0.0156307
53.445 0.00954547
53.645 0.0151911
53.845 0.0311617
54.045 0.044397
54.245 0.0531309
54.445 0.0956888
54.645 0.144881
54.845 0.110872
55.045 0.179815
55.245 0.292615
55.445 0.370652
55.645 0.362505
55.845 0.240309
56.045 0.134178
56.245 0.0701344
56.445 0.032678
56.645 0.0369975
56.845 0.0340795
57.045 0.0325897
57.245 0.0264033
57.445 0.0307874
57.645 0.0328511
57.845 0.0645598
58.045 0.134976
58.245 0.0483248
58.445 0.010519
58.645 0.0107905
58.845 0.00531237
59.045 0.00584522
59.245 0.0196231
59.445 0.0248426
59.645 0.0260338
59.845 0.00944736
60.045 0.0179154
60.245 0.00354078
60.445 0.0022353
60.645 0.00422158
60.845 0.0298882
61.045 0.0312084
61.245 0.0427335
61.445 0.0324056
61.645 0.041382
61.845 0.0670486
62.045 0.0909278
62.245 0.135816
62.445 0.185681
62.645 0.141184
62.845 0.0919111
63.045 0.056792
63.245 0.0244753
63.445 0.00462494
63.645 -0.0034002
63.845 0.0121303
64.045 0.0176567
64.245 0.0286297
64.445 0.0309781
64.645 0.0238451
64.845 0.0199777
65.045 -0.00592247
65.245 -0.00144622
65.445 0.00654655
65.645 0.00189561
65.845 -0.00140206
66.045 0.0140411
66.245 0.00326875
66.445 -0.00373587
66.645 0.00608432
66.845 0.00339159
67.045 0.00526167
67.245 0.0336794
67.445 0.0431402
67.645 0.0428116
67.845 0.0380395
68.045 0.00722631
68.245 0.0189693
68.445 0.0230012
68.645 0.0338516
68.845 0.0414058
69.045 0.0418069
69.245 0.0326692
69.445 0.0192066
69.645 0.00791832
69.845 0.00943058
70.045 -0.0019545
70.245 0.00641335
70.445 0.00713612
70.645 -0.00159046
70.845 0.00611641
71.045 0.00874204
71.245 0.00550617
71.445 0.00159787
71.645 0.00525455
71.845 0.00833158
72.045 0.014596
72.245 0.00313591
72.445 0.00455995
72.46 -0.00996629