File: data/xrd/xy/2019-06-18T19_59_27.923270+00_00_LBL_A1.xy
'Id: "" Comment: "Integrate frame 20190716_acnh3_nprop_4flph_06_003.gfrmwith cursor Wedge Cursor #4" Operator: "UC Berkeley" Anode: "Co" Scantype: "TwoTheta" TimePerStep: "450"
24.55 -0.0442507
24.72 0.0332935
24.89 0.0914512
25.06 0.0822065
25.23 0.0975755
25.4 0.0184235
25.57 0.121851
25.74 0.123003
25.91 0.04699
26.08 0.114175
26.25 0.40663
26.42 0.123508
26.59 0.113357
26.76 0.0913855
26.93 0.121433
27.1 -0.0156228
27.27 0.0562986
27.44 0.1565
27.61 0.0662297
27.78 0.0550154
27.95 0.0405173
28.12 0.0510774
28.29 -0.00226967
28.46 -0.0183109
28.63 0.076958
28.8 0.0207826
28.97 -0.01571
29.14 0.0553179
29.31 0.0469995
29.48 0.0760249
29.65 0.0327207
29.82 0.10869
29.99 0.330425
30.16 4.72612
30.33 3.63974
30.5 0.18089
30.67 0.0868525
30.84 0.0557484
31.01 -0.0169344
31.18 0.0479986
31.35 0.0141407
31.52 0.0279405
31.69 -0.00245484
31.86 0.103684
32.03 0.0949081
32.2 0.0453198
32.37 0.0259796
32.54 -0.00404753
32.71 0.0535083
32.88 -0.0208069
33.05 0.00987625
33.22 0.0219087
33.39 0.0181284
33.56 0.0203522
33.73 -0.0140183
33.9 0.0158341
34.07 0.00697312
34.24 -0.0073993
34.41 0.0329848
34.58 0.00510193
34.75 0.0669758
34.92 0.0485087
35.09 0.00978313
35.26 0.0102199
35.43 -0.00699408
35.6 -0.0101484
35.77 -0.00653634
35.94 0.0203018
36.11 -0.011498
36.28 0.030935
36.45 0.0276973
36.62 0.00415012
36.79 -0.00261678
36.96 0.0044467
37.13 0.05329
37.3 0.0720633
37.47 0.0354854
37.64 0.00313257
37.81 0.0189256
37.98 0.0360161
38.15 -0.0316542
38.32 0.00783318
38.49 0.00450227
38.66 -0.00849957
38.83 0.00308578
39 -0.0101308
39.17 0.00312796
39.34 0.00462237
39.51 0.00241936
39.68 0.0994001
39.85 0.388078
40.02 3.50285
40.19 2.04216
40.36 0.254242
40.53 0.0361177
40.7 -0.0125989
40.87 0.00517745
41.04 0.0270223
41.21 -0.00804268
41.38 0.0211454
41.55 -0.00605525
41.72 -0.0167326
41.89 -0.0201058
42.06 0.00110707
42.23 0.0162483
42.4 -0.00199933
42.57 0.00551858
42.74 0.00972316
42.91 0.0331647
43.08 0.0084378
43.25 0.0246797
43.42 0.0551643
43.59 0.0175379
43.76 -0.0131367
43.93 -0.0216126
44.1 0.00259058
44.27 0.0198636
44.44 0.0322243
44.61 0.0320282
44.78 -0.029998
44.95 0.0372424
45.12 0.158332
45.29 0.499393
45.46 0.136803
45.63 0.0414993
45.8 0.0284718
45.97 0.0808966
46.14 1.25944
46.31 3.22904
46.48 1.00803
46.65 0.119254
46.82 0.0307592
46.99 0.0323478
47.16 0.0526539
47.33 0.032344
47.5 0.0160886
47.67 0.0349213
47.84 0.0526485
48.01 0.0171495
48.18 0.00398511
48.35 0.015658
48.52 0.0323492
48.69 0.307223
48.86 0.651621
49.03 0.227376
49.2 -0.012799
49.37 -0.0159169
49.54 0.00790388
49.71 0.00402404
49.88 0.0224244
50.05 0.0120079
50.22 0.0105614
50.39 0.0225211
50.56 -0.00464386
50.73 0.0197877
50.9 0.0143711
51.07 0.0180191
51.24 0.0157956
51.41 0.00497509
51.58 0.00927081
51.75 0.0185423
51.92 0.0275561
52.09 0.0177372
52.26 0.0102823
52.43 0.028942
52.6 0.0129363
52.77 0.0930572
52.94 0.579784
53.11 0.866776
53.28 0.379075
53.45 0.0511676
53.62 0.016854
53.79 -0.017985
53.96 0.0310334
54.13 -0.0106471
54.3 -0.0133909
54.47 -0.000654569
54.64 0.00111839
54.81 0.013348
54.98 0.0239498
55.15 -0.0201733
55.32 0.0238059
55.49 0.00434626
55.66 0.012326
55.83 0.0251849
56 0.206896
56.17 1.064
56.34 1.22901
56.51 0.500484
56.68 0.0785328
56.85 0.0114133
57.02 2.02276e-05
57.19 0.00645171
57.36 0.0383571
57.53 0.0341739
57.7 0.00629116
57.87 0.0282716
58.04 -0.0101676
58.21 -0.00321942
58.38 0.0249395
58.55 -0.00484656
58.72 0.0339442
58.89 0.0125864
59.06 0.0237295
59.23 0.0120288
59.4 0.0265127
59.57 0.0191151
59.74 0.0207595
59.91 0.00187045
60.08 0.00649236
60.25 0.0464622
60.42 0.031666
60.59 0.0195602
60.76 0.0273029
60.93 0.0241102
61.1 -0.00129784
61.27 0.0426074
61.44 0.0240179
61.61 0.205815
61.78 0.268562
61.95 0.212387
62.12 0.0180467
62.29 0.00397563
62.46 0.0128119
62.63 0.369116
62.8 0.894647
62.97 0.700967
63.14 0.205833
63.31 0.0513629
63.48 0.0151039
63.65 0.0337524
63.82 -0.00142353
63.99 -0.0235018
64.16 0.00834638
64.33 0.00617683
64.5 -0.00271627
64.67 0.00555142
64.84 0.0166693
65.01 0.0172431
65.18 0.0188141
65.35 0.0404267
65.52 0.00298035
65.69 0.00456189
65.86 0.0153553
66.03 0.00499429
66.2 -0.00308413
66.37 0.0392265
66.54 0.206241
66.71 0.365342
66.88 0.291284
67.05 0.10973
67.22 0.0125872
67.39 0.00772531
67.56 0.00139885
67.73 0.0281058
67.9 0.0194084
68.07 0.0430475
68.24 0.0720892
68.41 0.0739862
68.58 -0.0129202
68.75 0.00633609
68.92 0.0272294
69.09 0.0129519
69.26 -0.00204624
69.43 -0.0114075
69.6 0.00552971
69.77 0.0389931
69.94 0.013995
70.11 0.00840187
70.28 0.00312864
70.45 0.00958798
70.62 0.0214151
70.79 0.0268166
70.96 0.0255718
71.13 0.00559484
71.3 0.0316453
71.47 0.0249256
71.64 0.00355944
71.81 0.0206616
71.98 -0.00205891
72.15 0.00554335
72.32 0.00658789
72.49 -0.00115455
72.66 0.0185958
72.83 0.13023
73 0.226615
73.17 0.154367
73.34 0.0803759
73.51 0.0103021
73.68 0.00597649
73.85 0.0398609
74.02 0.00261255
74.19 0.00468511
74.36 0.00399
74.53 -0.00313254
74.585 -0.0208044