File: data/xrd/xy/2019-06-18T20_49_29.598214+00_00_LBL_A1.xy
'Id: "" Comment: "Integrate frame neopen_trifluo_02_001.gfrmwith cursor Wedge Cursor #2" Operator: "UC Berkeley" Anode: "Co" Scantype: "TwoTheta" TimePerStep: "700"
13.595 -0.0230118
13.79 -0.00186823
13.985 0.0523182
14.18 0.0453246
14.375 0.0235446
14.57 0.0846972
14.765 0.091976
14.96 0.0456856
15.155 -0.0232536
15.35 0.0163252
15.545 0.00929629
15.74 0.0166964
15.935 0.0402296
16.13 0.0363762
16.325 0.0306967
16.52 0.00579744
16.715 0.0212987
16.91 0.0507477
17.105 0.0485076
17.3 0.0311579
17.495 0.0169369
17.69 0.0335412
17.885 0.0430209
18.08 0.0487762
18.275 0.0135254
18.47 0.010489
18.665 0.000432553
18.86 0.0108347
19.055 0.0457028
19.25 0.0534238
19.445 0.0605116
19.64 0.0442391
19.835 0.0259015
20.03 0.0403703
20.225 0.0396619
20.42 0.0278632
20.615 0.0279402
20.81 0.081173
21.005 0.056332
21.2 0.0296831
21.395 -0.00308542
21.59 0.0444145
21.785 -0.00476471
21.98 0.0582027
22.175 0.0342208
22.37 0.00775537
22.565 0.03402
22.76 0.0175672
22.955 0.035335
23.15 -0.00183988
23.345 0.0234156
23.54 0.0338265
23.735 0.0233853
23.93 0.00535714
24.125 0.00745921
24.32 0.026138
24.515 -0.000973777
24.71 0.0172137
24.905 0.0438455
25.1 0.015244
25.295 0.0246394
25.49 -0.0201012
25.685 0.0106735
25.88 0.0149895
26.075 0.0269699
26.27 0.0812449
26.465 0.00785146
26.66 0.0478223
26.855 0.0621103
27.05 0.189961
27.245 1.18846
27.44 0.118501
27.635 0.051452
27.83 0.061649
28.025 0.0503491
28.22 0.0384703
28.415 -0.000965901
28.61 0.0291432
28.805 0.0699141
29 0.204805
29.195 0.133985
29.39 0.0945784
29.585 0.153036
29.78 0.134909
29.975 0.461155
30.17 2.71149
30.365 0.360569
30.56 0.0824616
30.755 0.0607318
30.95 0.0514741
31.145 0.0553447
31.34 0.0907274
31.535 0.0829511
31.73 0.0526107
31.925 0.017259
32.12 -0.0217661
32.315 0.00858759
32.51 0.00294759
32.705 0.0710746
32.9 0.159418
33.095 0.151783
33.29 0.112669
33.485 0.0405
33.68 0.0128554
33.875 0.0344934
34.07 0.0690632
34.265 0.194797
34.46 1.24175
34.655 0.775116
34.85 0.112469
35.045 0.0643439
35.24 0.0721097
35.435 0.0425721
35.63 0.0602879
35.825 0.0568294
36.02 0.105418
36.215 0.132654
36.41 0.0613501
36.605 0.0145187
36.8 -0.00442447
36.995 0.00275206
37.19 -0.00159746
37.385 0.00648459
37.58 0.0100698
37.775 -0.00563013
37.97 0.0207742
38.165 0.018108
38.36 0.0132845
38.555 0.000962246
38.75 -0.0028273
38.945 -0.00851237
39.14 -0.00472609
39.335 0.0183741
39.53 0.011096
39.725 0.0688103
39.92 0.393701
40.115 0.312544
40.31 0.0486982
40.505 0.0139676
40.7 0.00218905
40.895 -0.00653418
41.09 0.0215057
41.285 0.00808382
41.48 0.00236195
41.675 0.00677535
41.87 0.035208
42.065 0.00966005
42.26 0.00128443
42.455 0.0183417
42.65 -0.00506257
42.845 0.00362465
43.04 0.0157769
43.235 0.00597004
43.43 -0.00618407
43.625 0.00224387
43.82 0.0169494
44.015 0.0284741
44.21 0.0280241
44.405 0.0242218
44.6 0.0189188
44.795 0.0259877
44.99 0.0914815
45.185 0.299006
45.38 0.115784
45.575 0.0563902
45.77 0.0902339
45.965 0.609326
46.16 2.80909
46.355 1.60349
46.55 0.220679
46.745 0.0286773
46.94 0.0175049
47.135 0.0151057
47.33 0.00911529
47.525 0.00627305
47.72 -0.00648012
47.915 0.00421447
48.11 0.0242327
48.305 0.0276873
48.5 0.133613
48.695 0.595072
48.89 0.419544
49.085 0.0795728
49.28 -0.00661514
49.475 0.00136769
49.67 -0.0183395
49.865 -0.00343268
50.06 0.0135862
50.255 -0.0100725
50.45 0.000159486
50.645 0.0155274
50.84 -0.000910433
51.035 0.0168943
51.23 0.0185371
51.425 -0.0106721
51.62 0.00500171
51.815 -0.000426971
52.01 0.00224356
52.205 0.004002
52.4 0.000484356
52.595 0.0202565
52.79 0.116631
52.985 0.147497
53.18 0.0750346
53.375 0.0131016
53.57 0.00483301
53.765 0.00327326
53.96 0.00898242
54.155 0.0184148
54.35 0.0926942
54.545 0.119773
54.74 0.045423
54.935 0.0174638
55.13 0.00750284
55.325 0.0107449
55.52 0.011819
55.715 0.0371974
55.91 0.123019
56.105 0.404247
56.3 0.337125
56.495 0.103251
56.69 0.0197879
56.885 0.018114
57.08 -0.00664224
57.275 0.0214003
57.47 0.00201884
57.665 0.0359451
57.86 0.0322758
58.055 0.048155
58.25 0.0428645
58.445 0.0206919
58.64 0.0784557
58.835 0.299171
59.03 0.452919
59.225 0.171653
59.42 0.037841
59.615 0.0225338
59.81 0.00831785
60.005 0.0400656
60.2 0.0499007
60.395 0.0307446
60.59 0.010565
60.785 -0.010291
60.98 0.0123805
61.175 0.0282349
61.37 0.109643
61.565 0.153548
61.76 0.184873
61.955 0.068306
62.15 0.00675719
62.345 0.015418
62.54 0.0479618
62.735 0.109124
62.93 0.0992449
63.125 0.0330241
63.32 0.021499
63.515 -0.0152537
63.71 0.0104092
63.905 0.00864859
64.1 0.00812929
64.295 0.00670619
64.49 0.0146257
64.685 -0.00516353
64.88 0.0182134
65.075 0.010817
65.27 0.00576243
65.465 0.0262625
65.66 0.0291436
65.855 0.0155102
66.05 0.0256906
66.245 0.0744518
66.44 0.225156
66.635 0.264092
66.83 0.237419
67.025 0.123333
67.22 0.109444
67.415 0.16741
67.61 0.0562082
67.805 0.0155731
68 0.0128637
68.195 -0.00213688
68.39 -0.000997776
68.585 0.0022436
68.78 0.00265327
68.975 0.00140311
69.17 0.00760723
69.365 0.0125255
69.56 -0.0014936
69.755 -0.00203197
69.95 0.000914406
70.145 -0.00286083
70.34 -0.0048676
70.535 -0.000521222
70.73 -0.0012927
70.925 0.00615867
71.12 0.00515404
71.315 -0.0111736
71.345 -0.0147218