File: data/xrd/xy/2019-06-10T21_14_00.866379+00_00_LBL_B1.xy
'Id: "" Comment: "Integrate frame 06132019_dimethyl_ipropyl_01_002.gfrmwith cursor Wedge Cursor #1" Operator: "UC Berkeley" Anode: "Co" Scantype: "TwoTheta" TimePerStep: "480"
15.36 -0.028612
15.555 -0.0276822
15.75 0.0200474
15.945 0.0432358
16.14 0.0175804
16.335 0.0535216
16.53 0.0836665
16.725 0.0365039
16.92 -0.00683614
17.115 0.0415198
17.31 -0.011399
17.505 -0.00387835
17.7 0.0768523
17.895 0.00436014
18.09 0.0542547
18.285 0.0585139
18.48 0.146739
18.675 0.0379099
18.87 0.0438543
19.065 0.0206719
19.26 0.0188226
19.455 0.0383455
19.65 0.0135741
19.845 0.00240863
20.04 0.0352602
20.235 0.0590154
20.43 0.0197555
20.625 0.0285131
20.82 -0.0289312
21.015 0.0639721
21.21 -0.0269786
21.405 0.0827295
21.6 0.0494408
21.795 0.0647313
21.99 0.113454
22.185 0.0265834
22.38 0.0739636
22.575 0.0821414
22.77 0.0267934
22.965 0.0656534
23.16 0.0663432
23.355 0.259747
23.55 0.865349
23.745 0.117925
23.94 -0.0237141
24.135 0.00654241
24.33 -0.0243115
24.525 0.0517152
24.72 0.0341414
24.915 0.033303
25.11 0.00916871
25.305 0.0268649
25.5 0.00489412
25.695 0.0321969
25.89 0.0143212
26.085 0.055717
26.28 0.00775157
26.475 0.0352727
26.67 0.030655
26.865 0.0338232
27.06 0.0476165
27.255 0.0219696
27.45 0.0365673
27.645 0.0543364
27.84 0.0534571
28.035 0.036368
28.23 0.0148167
28.425 -0.00954297
28.62 0.149904
28.815 0.135562
29.01 0.0119729
29.205 0.00158224
29.4 0.00599498
29.595 0.0535115
29.79 0.170042
29.985 1.85422
30.18 1.83796
30.375 0.127706
30.57 0.054731
30.765 0.00979164
30.96 0.00238023
31.155 0.0247296
31.35 -0.00480937
31.545 0.0186953
31.74 0.0316419
31.935 -0.0108091
32.13 -0.00313909
32.325 -0.00415117
32.52 0.0483379
32.715 0.0195973
32.91 0.00886622
33.105 -0.0101455
33.3 -0.0104258
33.495 0.0251224
33.69 0.0101462
33.885 -0.0226728
34.08 0.0236454
34.275 0.0139472
34.47 0.0518471
34.665 0.490137
34.86 0.631085
35.055 0.0713886
35.25 -0.00114564
35.445 -0.0087338
35.64 -0.014765
35.835 0.0402777
36.03 0.249702
36.225 2.24096
36.42 1.54919
36.615 0.122054
36.81 -0.00606307
37.005 0.005217
37.2 0.116879
37.395 0.603788
37.59 0.458739
37.785 0.038817
37.98 0.00196761
38.175 0.0231418
38.37 0.0970264
38.565 0.33686
38.76 0.0758693
38.955 0.0206394
39.15 0.000812979
39.345 0.0192726
39.54 0.0209977
39.735 0.0148584
39.93 0.00167274
40.125 0.0126941
40.32 0.0123812
40.515 0.00310304
40.71 0.051806
40.905 0.00182985
41.1 0.00887228
41.295 0.256794
41.49 0.238522
41.685 0.00831072
41.88 -0.0144744
42.075 0.0181162
42.27 0.00580746
42.465 0.0320649
42.66 0.00784271
42.855 -0.00824824
43.05 -0.00641819
43.245 0.00554123
43.44 0.0237548
43.635 0.0205507
43.83 -0.00205034
44.025 -0.00487591
44.22 0.0322906
44.415 0.0617763
44.61 0.159991
44.805 0.228464
45 0.0312476
45.195 0.0108651
45.39 0.0191012
45.585 0.0147363
45.78 -0.000135223
45.975 0.00360859
46.17 -0.00676335
46.365 -0.00235079
46.56 -0.0139787
46.755 -0.0159982
46.95 -0.00149645
47.145 0.0104131
47.34 0.0441966
47.535 0.19412
47.73 0.251394
47.925 1.20409
48.12 2.30163
48.315 1.29549
48.51 0.170996
48.705 0.0366175
48.9 0.173272
49.095 0.306177
49.29 0.124662
49.485 -0.0187589
49.68 0.00219059
49.875 0.0506775
50.07 0.51045
50.265 0.935775
50.46 0.429559
50.655 0.035286
50.85 0.00673352
51.045 -0.0224382
51.24 -0.00872556
51.435 0.00708645
51.63 0.0404466
51.825 0.16538
52.02 0.250803
52.215 0.0862243
52.41 0.00490168
52.605 -0.00207656
52.8 0.00954737
52.995 -0.00406142
53.19 0.00512919
53.385 9.64223e-06
53.58 0.0755045
53.775 0.129735
53.97 0.0501196
54.165 0.000550629
54.36 -0.0101957
54.555 0.00322741
54.75 -0.00746206
54.945 0.015067
55.14 0.0345513
55.335 0.0141311
55.53 0.0179675
55.725 0.0195279
55.92 0.00417581
56.115 0.000705446
56.31 0.0284124
56.505 -0.0128641
56.7 0.0231454
56.895 0.050773
57.09 0.0803182
57.285 0.0550831
57.48 0.0594663
57.675 0.373851
57.87 0.528382
58.065 0.282918
58.26 0.0517041
58.455 -0.00130579
58.65 0.00718604
58.845 0.0232427
59.04 -0.000986445
59.235 0.0175061
59.43 -0.0131299
59.625 -0.00694386
59.82 0.00133487
60.015 0.00202637
60.21 0.0139392
60.405 0.0288387
60.6 -0.0118049
60.795 0.00450628
60.99 0.0229173
61.185 -0.000967717
61.38 0.00647348
61.575 0.150247
61.77 0.313152
61.965 0.200039
62.16 0.0740317
62.355 0.169744
62.55 0.24584
62.745 0.27714
62.94 0.0998962
63.135 -0.00265528
63.33 0.0271007
63.525 0.0123988
63.72 -0.00102192
63.915 -0.000292371
64.11 0.0128967
64.305 0.0388852
64.5 0.00864894
64.695 0.0324456
64.89 0.0866527
65.085 0.0936471
65.28 0.0336859
65.475 0.0469181
65.67 0.0133899
65.865 0.0016065
66.06 -0.014467
66.255 0.0230073
66.45 0.00660936
66.645 -0.0180821
66.84 0.0135995
67.035 0.0149477
67.23 0.00694739
67.425 0.0132482
67.62 0.0418759
67.815 0.0772929
68.01 0.0659098
68.205 0.0284118
68.4 -0.00147128
68.595 0.0192659
68.79 -0.00690262
68.985 -9.96126e-05
69.18 -0.00946048
69.375 0.010608
69.57 0.0400534
69.765 0.0163152
69.96 0.0166736
70.155 0.0159655
70.35 0.0154584
70.545 0.00746951
70.74 0.030414
70.935 0.14645
71.13 0.264876
71.325 0.308523
71.52 0.166548
71.715 0.054893
71.91 0.02425
72.105 0.0063911
72.3 0.0110227
72.495 -0.00999503
72.69 0.018793
72.885 -0.00519646
72.945 -0.0190484