File: data/xrd/xy/2019-09-24T15_41_07.555823+00_00_LBL_B7.xy
'Id: "" Comment: "Integrate frame butane14dia_02_001.gfrmwith cursor Wedge Cursor #2" Operator: "UC Berkeley" Anode: "Co" Scantype: "TwoTheta" TimePerStep: "600"
13.83 -0.0251363
14.025 0.0533773
14.22 0.0423468
14.415 0.21562
14.61 0.162749
14.805 0.0104284
15 0.049748
15.195 0.0581218
15.39 0.0175743
15.585 0.0535466
15.78 0.0173688
15.975 0.0472799
16.17 0.0439448
16.365 0.0273091
16.56 0.0659373
16.755 0.0311282
16.95 0.0614863
17.145 0.546459
17.34 0.260203
17.535 0.0498308
17.73 0.00922396
17.925 -0.0245535
18.12 0.0187326
18.315 0.0663814
18.51 -0.0136974
18.705 0.00875577
18.9 -0.0243809
19.095 0.0435382
19.29 0.0213541
19.485 0.0204824
19.68 0.0339679
19.875 0.041393
20.07 0.0305532
20.265 -0.0180409
20.46 0.0296387
20.655 0.0751203
20.85 0.226613
21.045 0.378881
21.24 0.090074
21.435 0.0203815
21.63 0.0178544
21.825 0.0106245
22.02 0.0631974
22.215 0.0388215
22.41 0.0537105
22.605 0.0283634
22.8 0.0280357
22.995 -0.00632885
23.19 0.00639585
23.385 0.0368915
23.58 0.0955362
23.775 0.121117
23.97 0.0249358
24.165 0.162492
24.36 0.0290235
24.555 0.0145392
24.75 0.00552769
24.945 0.583888
25.14 0.125645
25.335 0.056088
25.53 0.0195066
25.725 0.0256603
25.92 0.134756
26.115 1.17407
26.31 0.335539
26.505 0.4353
26.7 0.0221353
26.895 -0.0116284
27.09 0.0225194
27.285 0.0612545
27.48 0.00428186
27.675 0.00876826
27.87 0.0867486
28.065 0.391562
28.26 0.215037
28.455 2.72538
28.65 0.90029
28.845 0.146318
29.04 0.244705
29.235 0.049522
29.43 0.030392
29.625 0.0218166
29.82 0.0400741
30.015 0.241549
30.21 0.138554
30.405 0.227879
30.6 0.356755
30.795 0.0741685
30.99 0.0101254
31.185 0.0241532
31.38 0.00432775
31.575 0.0321668
31.77 0.0166616
31.965 0.00482093
32.16 0.00743313
32.355 0.114153
32.55 0.517576
32.745 0.104839
32.94 0.0716178
33.135 0.00958522
33.33 0.0755921
33.525 0.00823848
33.72 -0.00624687
33.915 0.00979465
34.11 0.0624426
34.305 0.0785867
34.5 0.170447
34.695 1.44915
34.89 3.45816
35.085 0.147278
35.28 0.0205767
35.475 0.0300207
35.67 0.033178
35.865 -0.00499261
36.06 0.0191308
36.255 0.079623
36.45 0.0706552
36.645 0.498493
36.84 2.37972
37.035 0.308071
37.23 0.0888795
37.425 0.234842
37.62 0.121182
37.815 0.0248939
38.01 0.0121589
38.205 0.00219284
38.4 0.00121328
38.595 0.0176261
38.79 0.00903857
38.985 0.00280896
39.18 -0.00941613
39.375 0.0190954
39.57 0.242943
39.765 0.212116
39.96 0.0092868
40.155 -0.00661373
40.35 0.0658854
40.545 0.0996021
40.74 0.0380107
40.935 0.0276442
41.13 -0.00470521
41.325 0.00591386
41.52 0.177458
41.715 0.264016
41.91 -0.0079866
42.105 0.157491
42.3 0.640503
42.495 0.132718
42.69 0.0187809
42.885 0.0208453
43.08 -0.00668714
43.275 0.0192995
43.47 0.00938927
43.665 0.0238404
43.86 0.0207924
44.055 0.017147
44.25 0.0163342
44.445 0.23713
44.64 0.198738
44.835 0.181044
45.03 0.166349
45.225 0.12548
45.42 0.173165
45.615 0.323622
45.81 0.170546
46.005 0.239873
46.2 0.303299
46.395 0.0548119
46.59 -0.015097
46.785 -0.0105136
46.98 -0.0104327
47.175 -0.0152644
47.37 0.0361442
47.565 0.184288
47.76 0.12398
47.955 0.0496747
48.15 0.0406166
48.345 -0.0123024
48.54 -0.0163694
48.735 0.0307772
48.93 0.064653
49.125 0.0650606
49.32 0.385708
49.515 0.328934
49.71 0.097545
49.905 0.0239595
50.1 0.0294069
50.295 0.169965
50.49 0.464155
50.685 0.104176
50.88 0.00863417
51.075 -0.00608162
51.27 -6.74988e-06
51.465 -0.00572703
51.66 -0.0064669
51.855 0.0444083
52.05 0.0181998
52.245 -0.0138521
52.44 -0.0146633
52.635 0.0119934
52.83 0.0188983
53.025 0.052982
53.22 0.290336
53.415 1.2642
53.61 0.408047
53.805 0.142574
54 0.125433
54.195 0.0852039
54.39 0.140002
54.585 0.0439127
54.78 -0.00725153
54.975 0.0155894
55.17 0.203131
55.365 0.197985
55.56 0.0248081
55.755 -0.00314484
55.95 0.00969995
56.145 0.0446299
56.34 0.215889
56.535 0.443029
56.73 0.181941
56.925 0.0644833
57.12 0.0125984
57.315 -0.00380175
57.51 0.00489996
57.705 0.0231253
57.9 0.0589607
58.095 0.0900035
58.29 0.0783794
58.485 0.0372054
58.68 0.023484
58.875 0.0947998
59.07 0.168607
59.265 0.0722008
59.46 0.0690518
59.655 0.0102481
59.85 -0.000912683
60.045 0.0160758
60.24 -0.0137078
60.435 0.0250049
60.63 0.0158697
60.825 0.0681002
61.02 0.0770962
61.215 0.00152737
61.41 -0.00364503
61.605 0.000283781
61.8 0.035295
61.995 0.0516055
62.19 0.0810099
62.385 0.043364
62.58 0.025289
62.775 0.0187662
62.97 -0.0118115
63.165 0.00386795
63.36 0.0108432
63.555 0.00230395
63.75 0.0412614
63.945 0.0237212
64.14 -0.0157087
64.335 0.0353041
64.53 0.0431867
64.725 0.029675
64.92 0.0111002
65.115 -0.010711
65.31 -0.00400698
65.505 -0.00819262
65.7 0.0222128
65.895 0.0316233
66.09 0.00529551
66.285 0.0441041
66.48 0.112424
66.675 0.20621
66.87 0.00121912
67.065 -0.00112809
67.26 -0.00281394
67.455 0.00144755
67.65 -2.60527e-05
67.845 0.0220753
68.04 0.0553074
68.235 0.154917
68.43 0.229999
68.625 0.127835
68.82 0.0243336
69.015 0.00570597
69.21 0.00209725
69.405 0.0109343
69.6 0.224845
69.795 0.0472812
69.99 0.0361733
70.185 0.126866
70.38 0.070937
70.575 0.0595538
70.77 0.14271
70.965 0.155875
71.16 0.072559
71.355 -0.00203771
71.47 -0.0157735