File: data/xrd/xy/2019-09-12T19_45_57.603044+00_00_LBL_G2.xy
'Id: "" Comment: "Integrate frame piperidinium_02_001.gfrmwith cursor Wedge Cursor #2" Operator: "UC Berkeley" Anode: "Co" Scantype: "TwoTheta" TimePerStep: "600"
13.76 -0.0259228
13.955 0.0503376
14.15 0.0210718
14.345 0.0480429
14.54 0.00959033
14.735 0.0595739
14.93 0.0401176
15.125 0.0669982
15.32 0.0101609
15.515 0.0223997
15.71 0.0424269
15.905 0.0153612
16.1 0.022793
16.295 -0.0117321
16.49 0.0333578
16.685 0.00827009
16.88 0.060121
17.075 0.0285508
17.27 0.0828877
17.465 0.0215455
17.66 0.00715572
17.855 0.0466376
18.05 0.063739
18.245 0.0860448
18.44 0.00326869
18.635 0.0106714
18.83 0.0530433
19.025 0.0484243
19.22 0.0392272
19.415 -0.00652563
19.61 0.0424691
19.805 0.069897
20 0.0396584
20.195 0.0696371
20.39 0.285195
20.585 0.132662
20.78 0.0581907
20.975 0.0362207
21.17 0.0435929
21.365 0.0348118
21.56 0.016676
21.755 0.0419033
21.95 0.0703696
22.145 0.0273099
22.34 0.104291
22.535 0.0259777
22.73 -0.0149028
22.925 0.0496811
23.12 0.0286
23.315 -0.0171641
23.51 0.154054
23.705 0.704864
23.9 0.0269317
24.095 0.0586381
24.29 0.0489324
24.485 0.0578429
24.68 0.0436862
24.875 0.0186557
25.07 0.0120765
25.265 -0.0123126
25.46 0.0563763
25.655 0.0901846
25.85 0.0897553
26.045 0.0337374
26.24 0.0984809
26.435 0.0112456
26.63 0.00561524
26.825 0.0124853
27.02 -0.00130518
27.215 0.0148949
27.41 0.0295255
27.605 0.0122167
27.8 0.00597103
27.995 0.0211563
28.19 0.0179419
28.385 0.0250106
28.58 0.0529384
28.775 0.0329525
28.97 0.0568796
29.165 0.871693
29.36 0.117446
29.555 0.0383924
29.75 0.0400708
29.945 0.0158556
30.14 0.0282688
30.335 0.0596718
30.53 0.228186
30.725 0.0500467
30.92 0.0241411
31.115 0.00718388
31.31 0.00245676
31.505 0.000585648
31.7 0.0278335
31.895 -0.00714062
32.09 0.001145
32.285 0.0169315
32.48 9.57216e-05
32.675 0.101211
32.87 0.36687
33.065 0.0797309
33.26 0.0328472
33.455 0.00215424
33.65 0.00772871
33.845 0.00424521
34.04 0.0740691
34.235 0.00127276
34.43 0.0014629
34.625 -0.00873178
34.82 -0.0161695
35.015 0.129786
35.21 0.162104
35.405 0.0760932
35.6 0.00919524
35.795 -0.0079046
35.99 0.0857935
36.185 0.967804
36.38 1.42676
36.575 0.0943841
36.77 0.244083
36.965 0.14082
37.16 -0.00746057
37.355 0.00968842
37.55 -0.00208107
37.745 -0.0196398
37.94 0.000734911
38.135 -0.0122569
38.33 0.024506
38.525 0.0544613
38.72 0.0141533
38.915 -0.00600724
39.11 0.0109494
39.305 0.0194351
39.5 0.0339875
39.695 0.163292
39.89 0.338909
40.085 0.0876721
40.28 0.0178804
40.475 -0.00523596
40.67 -0.00117261
40.865 0.014599
41.06 0.0180699
41.255 0.0490386
41.45 0.389744
41.645 0.94591
41.84 0.487875
42.035 0.148256
42.23 0.0092918
42.425 -0.00749538
42.62 0.0108762
42.815 0.040219
43.01 0.00658606
43.205 -0.0155251
43.4 0.0333319
43.595 0.00527108
43.79 -0.0107303
43.985 -0.00857762
44.18 0.00112946
44.375 0.0129417
44.57 -0.00216849
44.765 -0.00529556
44.96 0.0207677
45.155 0.00553935
45.35 -0.0124779
45.545 0.0103511
45.74 0.0203339
45.935 0.0357513
46.13 0.290273
46.325 0.167075
46.52 0.0283872
46.715 0.00811624
46.91 -0.0185876
47.105 0.0305055
47.3 0.0537261
47.495 0.00840088
47.69 0.06949
47.885 0.191781
48.08 0.28689
48.275 0.695518
48.47 1.40415
48.665 0.817549
48.86 0.0424786
49.055 0.0132508
49.25 0.0227061
49.445 0.0447477
49.64 0.181331
49.835 1.25595
50.03 0.908978
50.225 0.0639965
50.42 0.0072982
50.615 -0.00875041
50.81 -0.0160452
51.005 -0.000418782
51.2 -0.0198528
51.395 0.028164
51.59 0.0779517
51.785 0.307819
51.98 0.670114
52.175 1.77554
52.37 0.125588
52.565 0.00223593
52.76 -0.00796908
52.955 -0.00501251
53.15 0.00228898
53.345 0.0633039
53.54 0.0264608
53.735 -0.0209146
53.93 0.0293516
54.125 0.0392119
54.32 0.0144454
54.515 0.186865
54.71 0.122294
54.905 0.0065417
55.1 0.018907
55.295 0.0254581
55.49 0.129299
55.685 0.537371
55.88 0.245162
56.075 0.0267935
56.27 0.0113626
56.465 -0.0141475
56.66 -0.0160122
56.855 -0.00496608
57.05 -0.00994563
57.245 0.00839224
57.44 0.00474007
57.635 0.0251489
57.83 -0.0061392
58.025 -0.00142613
58.22 -0.00843998
58.415 -0.00482624
58.61 0.00662632
58.805 0.00275615
59 -0.0013516
59.195 -0.00366199
59.39 0.0649083
59.585 0.0509224
59.78 0.0767414
59.975 0.0244987
60.17 0.0068161
60.365 0.0528285
60.56 0.107225
60.755 0.0772874
60.95 0.00666929
61.145 -0.00301316
61.34 0.00687524
61.535 0.0130789
61.73 0.0670777
61.925 0.221901
62.12 0.440681
62.315 0.0948859
62.51 0.0121934
62.705 0.0198368
62.9 0.00398464
63.095 -0.00244567
63.29 0.0169933
63.485 0.0264088
63.68 0.0302862
63.875 0.00810342
64.07 0.00375523
64.265 0.189609
64.46 0.188979
64.655 0.0330308
64.85 0.00143198
65.045 0.00340038
65.24 0.048974
65.435 0.00569866
65.63 -0.0131839
65.825 0.027584
66.02 0.0280379
66.215 0.0435544
66.41 0.0412528
66.605 0.0598555
66.8 0.0513085
66.995 0.010416
67.19 -0.000139454
67.385 0.00425065
67.58 -0.00393059
67.775 0.0102761
67.97 0.0319881
68.165 0.0213715
68.36 0.0294487
68.555 0.0104026
68.75 -0.00586192
68.945 0.0251544
69.14 0.00522738
69.335 0.0414838
69.53 -0.0101759
69.725 0.00425766
69.92 -0.00607739
70.115 0.00629925
70.31 0.065327
70.505 0.186655
70.7 0.204386
70.895 0.0218113
71.09 -0.000885911
71.255 -0.0169415