File: data/xrd/xy/2019-06-27T12_52_20.503028+00_00_LBL_A7.xy
'Id: "" Comment: "Integrate frame 4_methoxyph_I_Fa_Br_01_002.gfrmwith cursor Wedge Cursor #1" Operator: "UC Berkeley" Anode: "Co" Scantype: "TwoTheta" TimePerStep: "400"
24.46 -0.0311406
24.63 0.000136197
24.8 -0.00306768
24.97 0.0697499
25.14 0.0802232
25.31 0.0735448
25.48 0.0247547
25.65 0.0704445
25.82 0.0386584
25.99 0.055377
26.16 0.0662967
26.33 0.0943597
26.5 0.0545533
26.67 0.0414051
26.84 0.0253767
27.01 0.0732787
27.18 0.0682195
27.35 0.0673027
27.52 0.0158849
27.69 0.0896937
27.86 0.095819
28.03 0.0699439
28.2 0.0607439
28.37 0.0643376
28.54 0.105766
28.71 0.0598762
28.88 0.0171004
29.05 0.0204445
29.22 0.0122476
29.39 0.0516692
29.56 0.0750194
29.73 0.0943372
29.9 0.121001
30.07 1.02489
30.24 2.03147
30.41 0.195531
30.58 0.141172
30.75 0.0465417
30.92 0.0701778
31.09 0.0802335
31.26 0.0449471
31.43 0.081089
31.6 0.0569534
31.77 0.0372768
31.94 0.0169456
32.11 0.0128995
32.28 0.00328518
32.45 0.0591442
32.62 0.0327063
32.79 0.0600197
32.96 0.127293
33.13 0.0717006
33.3 0.0505162
33.47 0.0655994
33.64 0.0294036
33.81 0.0156676
33.98 0.0502293
34.15 0.0636439
34.32 0.0448776
34.49 -0.00174014
34.66 0.0656334
34.83 0.0124726
35 0.0261613
35.17 0.0210134
35.34 0.0158942
35.51 0.00960629
35.68 0.0305279
35.85 0.0187554
36.02 0.0386641
36.19 0.0277672
36.36 0.0456944
36.53 0.0147622
36.7 0.0305237
36.87 0.0124454
37.04 0.0147305
37.21 0.0208032
37.38 0.026815
37.55 -0.00791519
37.72 -0.00551531
37.89 -0.00145343
38.06 0.030524
38.23 0.00765062
38.4 -0.0230426
38.57 -7.48623e-05
38.74 0.00330634
38.91 0.00292186
39.08 -0.000390991
39.25 0.0264449
39.42 0.00808508
39.59 0.019777
39.76 0.136094
39.93 1.32938
40.1 1.65705
40.27 0.220884
40.44 0.0298539
40.61 0.0189185
40.78 0.0155535
40.95 -0.0126831
41.12 -0.00304609
41.29 0.00104234
41.46 0.0321438
41.63 0.00213091
41.8 0.0261599
41.97 0.0224715
42.14 0.0510781
42.31 0.0101684
42.48 0.0199524
42.65 -0.00147959
42.82 0.0222538
42.99 -0.011284
43.16 0.0347636
43.33 -0.0216574
43.5 0.0214617
43.67 0.0500738
43.84 0.022841
44.01 0.0286814
44.18 0.0156262
44.35 0.00673518
44.52 0.020394
44.69 0.02445
44.86 0.0222965
45.03 0.0785423
45.2 0.279522
45.37 0.166673
45.54 0.0446624
45.71 0.0492774
45.88 0.0685911
46.05 0.340055
46.22 1.82884
46.39 0.836574
46.56 0.0675027
46.73 0.0187713
46.9 -0.00581602
47.07 0.0253727
47.24 0.00993791
47.41 0.0373803
47.58 0.00796373
47.75 0.0315867
47.92 0.0130594
48.09 0.012127
48.26 0.0355542
48.43 0.0322023
48.6 0.112914
48.77 0.408195
48.94 0.189774
49.11 0.0418463
49.28 0.0153899
49.45 0.0191267
49.62 0.00127483
49.79 0.0279655
49.96 0.0140052
50.13 0.00963081
50.3 0.00720126
50.47 0.0297571
50.64 0.0274307
50.81 0.0209525
50.98 0.0176662
51.15 0.0215137
51.32 0.000382389
51.49 -0.0138681
51.66 0.0177205
51.83 0.00310369
52 -0.00934425
52.17 0.0308084
52.34 -0.0142487
52.51 0.0150056
52.68 0.041806
52.85 0.217191
53.02 0.573886
53.19 0.290625
53.36 0.0477308
53.53 0.0291386
53.7 0.0300463
53.87 0.0391332
54.04 0.0320954
54.21 0.00366497
54.38 0.0401292
54.55 0.0121095
54.72 0.00397005
54.89 0.00719012
55.06 0.00569694
55.23 0.00690039
55.4 0.0308355
55.57 0.0148965
55.74 0.0274879
55.91 0.0982981
56.08 0.438252
56.25 0.637355
56.42 0.256803
56.59 0.0369451
56.76 -0.000476218
56.93 0.00868776
57.1 0.0307869
57.27 0.0424417
57.44 -0.0104211
57.61 0.00803729
57.78 0.0139215
57.95 0.0158457
58.12 0.0488754
58.29 0.0202372
58.46 0.000491907
58.63 0.0254598
58.8 0.00920036
58.97 0.033584
59.14 0.00403739
59.31 0.0101036
59.48 0.00332012
59.65 0.019207
59.82 0.0327072
59.99 0.0184163
60.16 0.043403
60.33 0.0355294
60.5 -0.00248578
60.67 0.0282928
60.84 -0.00786641
61.01 0.0288844
61.18 0.0151365
61.35 0.0200742
61.52 0.100189
61.69 0.215555
61.86 0.106733
62.03 0.0234132
62.2 0.0150557
62.37 0.0192243
62.54 0.0859762
62.71 0.495635
62.88 0.430027
63.05 0.154776
63.22 0.0393785
63.39 0.00395667
63.56 0.0165893
63.73 0.00267087
63.9 0.00721951
64.07 0.00821951
64.24 0.0269644
64.41 0.00247886
64.58 0.0184878
64.75 -0.0109144
64.92 0.015038
65.09 0.0102445
65.26 0.0188254
65.43 0.00593296
65.6 0.0221979
65.77 0.0270279
65.94 0.00629115
66.11 0.00164382
66.28 0.00988444
66.45 0.0940173
66.62 0.290802
66.79 0.279282
66.96 0.0897498
67.13 0.0239511
67.3 0.0241841
67.47 0.000194903
67.64 0.00529355
67.81 -0.0147144
67.98 0.0038219
68.15 0.0488479
68.32 0.0564979
68.49 0.0404727
68.66 0.00876427
68.83 0.0147057
69 0.0333798
69.17 0.0103613
69.34 0.0105056
69.51 0.0122209
69.68 0.00534025
69.85 0.0229573
70.02 0.00932589
70.19 -0.00283021
70.36 0.031887
70.53 0.0225747
70.7 -0.0148452
70.87 0.00755927
71.04 0.0148211
71.21 0.0123428
71.38 0.0254515
71.55 0.00912937
71.72 0.00253668
71.89 0.0161015
72.06 0.0359166
72.23 0.0165399
72.4 0.0142548
72.57 0.0100018
72.74 0.0853056
72.91 0.136869
73.08 0.13671
73.25 0.0624554
73.42 0.0168958
73.59 0.0068117
73.76 0.00194357
73.93 0.0289475
74.1 0.0142996
74.27 -0.00438747
74.44 0.0074439
74.61 0.00183018
74.65 -0.0159678