File: data/xrd/xy/2019-09-05T19_43_09.232228+00_00_LBL_D3.xy
'Id: "" Comment: "Integrate frame Morph_02_001.gfrmwith cursor Wedge Cursor #2" Operator: "UC Berkeley" Anode: "Co" Scantype: "TwoTheta" TimePerStep: "500"
13.82 -0.0270323
14.015 0.0696063
14.21 0.0724293
14.405 0.0968645
14.6 0.0247645
14.795 -0.0144011
14.99 0.0612269
15.185 0.0450555
15.38 0.0376004
15.575 0.00904404
15.77 0.0317327
15.965 0.0823478
16.16 0.0592558
16.355 0.0477837
16.55 0.00926937
16.745 -8.87505e-05
16.94 0.0716921
17.135 -0.0110322
17.33 0.0896463
17.525 0.403043
17.72 0.333894
17.915 0.0763062
18.11 0.0263448
18.305 0.014178
18.5 0.0517628
18.695 0.0624852
18.89 0.0396188
19.085 0.0102565
19.28 0.00621391
19.475 0.0208103
19.67 0.0056218
19.865 0.0196048
20.06 0.00616885
20.255 0.0681904
20.45 0.0296733
20.645 -0.00222633
20.84 0.0374744
21.035 0.0186382
21.23 0.00975825
21.425 0.0255994
21.62 0.035888
21.815 0.0295071
22.01 0.0598939
22.205 0.0629116
22.4 0.0345539
22.595 0.138422
22.79 0.027539
22.985 0.0446293
23.18 0.039641
23.375 0.0101364
23.57 0.0177999
23.765 0.0549261
23.96 0.055007
24.155 0.0454021
24.35 0.120487
24.545 0.0123571
24.74 0.0224319
24.935 -0.0112933
25.13 0.0204736
25.325 0.00480134
25.52 0.0185214
25.715 0.0950554
25.91 0.082894
26.105 0.087114
26.3 0.489785
26.495 10.5899
26.69 2.82572
26.885 0.200335
27.08 0.562209
27.275 0.0886857
27.47 0.0147608
27.665 0.0412075
27.86 0.00528422
28.055 0.196099
28.25 0.109143
28.445 0.187967
28.64 0.46322
28.835 0.147319
29.03 -0.0261155
29.225 0.0680702
29.42 0.111271
29.615 0.123892
29.81 0.0149862
30.005 0.00457726
30.2 0.0735371
30.395 0.224824
30.59 0.0229246
30.785 0.0188341
30.98 0.0136104
31.175 0.00486206
31.37 0.0597254
31.565 0.324347
31.76 0.188189
31.955 0.68124
32.15 0.175526
32.345 0.389868
32.54 0.671769
32.735 0.11202
32.93 0.42303
33.125 0.330363
33.32 0.111712
33.515 -0.0220789
33.71 0.130301
33.905 0.180125
34.1 0.0874067
34.295 0.462385
34.49 0.216647
34.685 0.124981
34.88 0.0750071
35.075 0.282919
35.27 0.395615
35.465 1.54451
35.66 9.94226
35.855 1.60516
36.05 0.625854
36.245 0.370194
36.44 0.0347271
36.635 -0.000104264
36.83 0.07373
37.025 0.00817056
37.22 -0.0251729
37.415 0.0043525
37.61 0.0646681
37.805 0.0708407
38 0.00273488
38.195 0.0706082
38.39 0.538239
38.585 0.389122
38.78 0.0234736
38.975 -0.0127991
39.17 0.0199458
39.365 0.0847159
39.56 0.0132176
39.755 -0.00294355
39.95 0.0855122
40.145 0.339769
40.34 0.157477
40.535 0.222774
40.73 0.146186
40.925 0.114892
41.12 0.167196
41.315 0.0366692
41.51 0.00833056
41.705 -0.00721559
41.9 -0.0175175
42.095 0.0126007
42.29 -0.0166172
42.485 0.110222
42.68 0.27947
42.875 0.0454533
43.07 0.0125674
43.265 0.0439101
43.46 0.102352
43.655 0.131073
43.85 0.0780883
44.045 0.224617
44.24 0.353857
44.435 0.0682748
44.63 0.0776612
44.825 0.258386
45.02 0.633955
45.215 0.159715
45.41 0.039448
45.605 0.00646864
45.8 0.0251148
45.995 -0.00618363
46.19 0.006373
46.385 0.0906024
46.58 0.131885
46.775 0.312602
46.97 0.279814
47.165 0.0663239
47.36 0.0113105
47.555 0.00946176
47.75 0.000250409
47.945 -0.00112571
48.14 0.0227687
48.335 0.0470875
48.53 0.0529061
48.725 0.0715754
48.92 0.10525
49.115 0.0483365
49.31 0.0332858
49.505 0.0516308
49.7 0.0495495
49.895 0.0742018
50.09 0.0799034
50.285 0.00243793
50.48 -0.00554018
50.675 0.0270063
50.87 0.0865089
51.065 0.226529
51.26 0.133641
51.455 -0.00810072
51.65 0.0160865
51.845 0.0758288
52.04 0.0725145
52.235 0.0736066
52.43 0.0822649
52.625 0.0219727
52.82 0.00533551
53.015 0.00558138
53.21 0.0181451
53.405 0.0417969
53.6 -0.00561332
53.795 0.00802882
53.99 0.04951
54.185 0.0575224
54.38 -0.00241515
54.575 0.076281
54.77 0.0998897
54.965 0.0248709
55.16 0.00514061
55.355 0.00218439
55.55 0.0835567
55.745 0.207446
55.94 0.307185
56.135 0.126927
56.33 0.0425167
56.525 0.0356604
56.72 -0.00443319
56.915 0.000310311
57.11 -0.0130377
57.305 0.012798
57.5 0.0104561
57.695 0.089361
57.89 0.0639623
58.085 0.0493317
58.28 0.0900107
58.475 0.0406878
58.67 0.0569533
58.865 0.0456905
59.06 0.0393738
59.255 0.000702275
59.45 0.00993209
59.645 0.0302564
59.84 0.00662779
60.035 0.00746902
60.23 0.0128955
60.425 -0.0126923
60.62 0.0251852
60.815 -0.00423214
61.01 0.0422102
61.205 0.0883862
61.4 0.10989
61.595 0.131424
61.79 0.0113007
61.985 0.00721003
62.18 0.0119584
62.375 0.0235539
62.57 0.0308138
62.765 0.0318929
62.96 0.0112315
63.155 0.0152762
63.35 0.0521083
63.545 0.037183
63.74 0.0110521
63.935 0.0048309
64.13 0.0243689
64.325 0.0414241
64.52 0.204951
64.715 0.427158
64.91 0.343972
65.105 0.142049
65.3 -0.0185309
65.495 0.00259844
65.69 0.0178211
65.885 0.0359108
66.08 0.0559946
66.275 0.0977207
66.47 0.0452868
66.665 0.00589706
66.86 -0.00655932
67.055 0.0142692
67.25 0.0266095
67.445 0.017032
67.64 0.0239392
67.835 0.0665157
68.03 0.0865699
68.225 0.0898265
68.42 0.0920833
68.615 0.021562
68.81 0.0132069
69.005 0.0127399
69.2 0.00296889
69.395 0.0144906
69.59 0.0365559
69.785 0.0170509
69.98 -0.0012488
70.175 -0.000981114
70.37 0.00317178
70.565 0.000626965
70.76 -0.00133557
70.955 0.0229877
71.15 0.092783
71.345 0.145721
71.54 0.204238
71.735 0.134234
71.93 0.0551181
72.065 -0.0197511