File: data/xrd/xy/2019-05-29T19_56_50.129046+00_00_LBL_E8.xy
'Id: "" Comment: "Integrate frame 4Fluorophenyl_05_002.gfrmwith cursor Wedge Cursor #1" Operator: "UC Berkeley" Anode: "Co" Scantype: "TwoTheta" TimePerStep: "600"
14.435 -0.0420468
14.61 0.0322529
14.785 0.0950279
14.96 0.0342132
15.135 0.0100385
15.31 0.0225003
15.485 0.0682607
15.66 0.0502087
15.835 0.0194899
16.01 0.0897078
16.185 0.0457292
16.36 0.0771996
16.535 0.0136443
16.71 0.0443429
16.885 -0.00437279
17.06 0.0760536
17.235 0.218988
17.41 -0.0238813
17.585 0.0404117
17.76 0.0219116
17.935 0.0126376
18.11 0.0249687
18.285 0.0211713
18.46 0.0694933
18.635 0.243855
18.81 0.0474177
18.985 0.030173
19.16 0.0446383
19.335 0.0433151
19.51 0.0162924
19.685 0.0351289
19.86 0.0533033
20.035 0.0268013
20.21 0.0729704
20.385 -0.0183879
20.56 0.0535153
20.735 0.0456839
20.91 0.0346028
21.085 -0.0139463
21.26 0.00620623
21.435 0.00595078
21.61 0.0400197
21.785 0.0309813
21.96 0.0281969
22.135 0.044396
22.31 0.0587844
22.485 0.0163198
22.66 0.0195574
22.835 0.0677843
23.01 0.0356673
23.185 0.0719238
23.36 0.0412887
23.535 0.0715221
23.71 0.0297114
23.885 0.0925931
24.06 0.0515181
24.235 0.0288745
24.41 0.0226605
24.585 0.0419822
24.76 0.00618064
24.935 0.506555
25.11 0.268427
25.285 0.0221542
25.46 0.00419544
25.635 0.0107306
25.81 0.00863337
25.985 0.00315056
26.16 0.027066
26.335 0.0191495
26.51 0.173731
26.685 0.151143
26.86 -0.00399697
27.035 0.0315738
27.21 0.0662984
27.385 -0.000202383
27.56 0.0194433
27.735 0.022832
27.91 0.00788213
28.085 0.00515927
28.26 0.0300428
28.435 0.0477335
28.61 0.035566
28.785 0.0529347
28.96 0.00635501
29.135 -0.00626381
29.31 0.0110288
29.485 0.0109013
29.66 0.0127056
29.835 -0.0311724
30.01 0.0189013
30.185 -0.0130925
30.36 0.0517938
30.535 0.0699078
30.71 0.0621008
30.885 0.0283625
31.06 0.334553
31.235 0.250052
31.41 2.46047
31.585 0.298145
31.76 0.224403
31.935 0.0879753
32.11 0.0287457
32.285 0.00631402
32.46 -0.0057878
32.635 0.0384962
32.81 -0.00579192
32.985 -0.00222359
33.16 -0.000205928
33.335 0.00467907
33.51 0.0213784
33.685 0.0272409
33.86 0.262613
34.035 0.323151
34.21 0.302354
34.385 0.0249218
34.56 -0.0129665
34.735 0.0236875
34.91 0.0291659
35.085 -0.00291251
35.26 0.03935
35.435 -0.00911464
35.61 -0.00366947
35.785 0.00410539
35.96 0.00510588
36.135 0.00139877
36.31 -0.0115063
36.485 0.0145176
36.66 0.00873623
36.835 -0.0114609
37.01 0.0143642
37.185 -0.0270041
37.36 0.00957728
37.535 0.101333
37.71 0.190259
37.885 1.00435
38.06 0.379127
38.235 0.077949
38.41 0.0416091
38.585 0.00384462
38.76 0.00687865
38.935 -0.00557665
39.11 -0.0229089
39.285 -0.0168112
39.46 -0.0020434
39.635 0.0146716
39.81 0.0157361
39.985 0.0529349
40.16 0.0149124
40.335 -0.00715418
40.51 -0.00444872
40.685 -0.00442115
40.86 0.00117462
41.035 0.0205067
41.21 0.003354
41.385 -0.00350421
41.56 -0.0188369
41.735 -0.00351625
41.91 0.00897001
42.085 0.013899
42.26 0.00109634
42.435 0.00421207
42.61 -0.00793281
42.785 -0.0126652
42.96 0.00792084
43.135 0.00431404
43.31 0.0119974
43.485 0.0104911
43.66 0.0227792
43.835 0.0156325
44.01 0.018536
44.185 0.00127404
44.36 0.0211614
44.535 0.0135092
44.71 0.0208122
44.885 -0.0141616
45.06 -0.012278
45.235 0.0143141
45.41 0.000212559
45.585 0.013252
45.76 0.0131408
45.935 -0.0139105
46.11 0.00543237
46.285 0.0135842
46.46 -0.000614968
46.635 0.00535108
46.81 0.0035874
46.985 0.00954339
47.16 0.004228
47.335 0.00264787
47.51 -0.00660772
47.685 0.0084654
47.86 -0.00820896
48.035 0.00717148
48.21 -0.00697692
48.385 -0.0032803
48.56 0.00692481
48.735 0.00578589
48.91 0.00277434
49.085 0.0102851
49.26 0.00241515
49.435 0.00328654
49.61 -0.00491421
49.785 -0.00556247
49.96 -0.00752162
50.135 -0.00371377
50.31 -0.0128537
50.485 -0.012911
50.66 -0.00497602
50.835 -0.00332592
51.01 -0.0120336
51.185 -0.0133457
51.36 -0.00817528
51.535 -0.0014886
51.71 0.00448422
51.885 -0.0136304
52.06 0.00253238
52.235 -0.0119561
52.41 -0.00236578
52.585 -0.00982449
52.76 0.000245626
52.935 -0.00804002
53.11 0.00198123
53.285 0.00287202
53.46 0.00944794
53.635 0.00889987
53.81 -0.0119268
53.985 0.0013945
54.16 -0.00603683
54.335 0.00321931
54.51 0.00856451
54.685 -0.00544048
54.86 -0.00211548
55.035 -0.00216466
55.21 -0.00628209
55.385 -0.00517127
55.56 0.00204444
55.735 -0.00346176
55.91 0.000939984
56.085 -0.00612015
56.26 0.00337107
56.435 0.00571121
56.61 -0.0109808
56.785 -0.00693278
56.96 0.00136682
57.135 0.00766572
57.31 0.000402388
57.485 0.0170266
57.66 -0.000545864
57.835 -0.00643533
58.01 0.0152421
58.185 0.00445722
58.36 0.0168125
58.535 -0.00636966
58.71 -0.00977441
58.885 -0.000291259
59.06 0.0114132
59.235 0.00915999
59.41 0.00854368
59.585 -0.00304906
59.76 0.0117566
59.935 -0.000979217
60.11 0.00144791
60.285 0.0175921
60.46 -0.00655253
60.635 0.0099784
60.81 0.00185075
60.985 0.000511079
61.16 -0.00640472
61.335 0.0103145
61.51 -0.00400013
61.685 -0.00287769
61.86 -0.0169704
62.035 0.0135648
62.21 -0.00242958
62.385 0.00876932
62.56 0.0102363
62.735 0.00334825
62.91 0.00298951
63.085 0.00913288
63.26 0.00368412
63.435 0.00406678
63.61 0.00658601
63.785 0.00551027
63.96 0.00819717
64.135 0.0066684
64.31 0.0105311
64.485 0.00874988
64.66 0.0100369
64.835 0.00176049
65.01 0.00853693
65.185 -0.000658911
65.36 0.00241384
65.535 0.000835113
65.71 0.00519163
65.85 -0.0160587