File: data/xrd/xy/4-Fluoro-Benzylammonium_Iodide.lbl_rescaled.xy
# Processed xy data with Haverford two-theta converted to LBL scale
two_theta,intensity
5.81234,9.0
6.06814,13.0
6.32395,20.0
6.57977,45.0
6.8356,338.0
7.09144,34.0
7.34728,12.0
7.60314,11.0
7.85901,6.0
8.11488,11.0
8.37077,11.0
8.62667,8.0
8.88257,10.0
9.1385,8.0
9.39443,7.0
9.65037,7.0
9.90633,8.0
10.1623,11.0
10.4183,8.0
10.6743,11.0
10.9303,12.0
11.1863,10.0
11.4424,7.0
11.6984,9.0
11.9545,11.0
12.2106,5.0
12.4667,9.0
12.7228,9.0
12.9789,13.0
13.2351,6.0
13.4912,9.0
13.7474,22.0
14.0036,76.0
14.2599,14.0
14.5161,14.0
14.7724,10.0
15.0287,9.0
15.285,11.0
15.5413,14.0
15.7976,16.0
16.054,12.0
16.3104,17.0
16.5668,17.0
16.8232,19.0
17.0797,17.0
17.3361,19.0
17.5926,18.0
17.8491,20.0
18.1057,13.0
18.3623,16.0
18.6188,19.0
18.8755,12.0
19.1321,30.0
19.3888,19.0
19.6455,22.0
19.9022,23.0
20.1589,23.0
20.4157,24.0
20.6725,36.0
20.9294,99.0
21.1862,42.0
21.4431,33.0
21.7,29.0
21.957,21.0
22.2139,32.0
22.4709,38.0
22.728,55.0
22.9851,30.0
23.2422,30.0
23.4993,35.0
23.7564,39.0
24.0136,71.0
24.2709,36.0
24.5281,40.0
24.7854,41.0
25.0428,46.0
25.3001,42.0
25.5575,32.0
25.815,43.0
26.0724,58.0
26.3299,89.0
26.5875,56.0
26.8451,51.0
27.1027,48.0
27.3603,50.0
27.618,49.0
27.8758,59.0
28.1335,129.0
28.3913,57.0
28.6492,37.0
28.9071,47.0
29.165,80.0
29.423,48.0
29.681,57.0
29.9391,64.0
30.1972,51.0
30.4553,50.0
30.7135,46.0
30.9717,37.0
31.23,42.0
31.4883,52.0
31.7467,55.0
32.0051,48.0
32.2635,72.0
32.522,64.0
32.7806,54.0
33.0392,46.0
33.2978,53.0
33.5565,43.0
33.8153,39.0
34.0741,37.0
34.3329,46.0
34.5918,38.0
34.8507,45.0
35.1097,48.0
35.3688,119.0
35.6279,54.0
35.887,32.0
36.1462,33.0
36.4055,38.0
36.6648,41.0
36.9241,49.0
37.1836,38.0
37.443,38.0
37.7026,58.0
37.9621,44.0
38.2218,45.0
38.4815,58.0
38.7412,27.0
39.0011,34.0
39.2609,31.0
39.5209,25.0
39.7809,28.0
40.0409,33.0
40.3011,26.0
40.5612,30.0
40.8215,27.0
41.0818,31.0
41.3421,37.0
41.6026,24.0
41.8631,32.0
42.1236,22.0
42.3843,24.0
42.645,31.0
42.9057,39.0
43.1665,31.0
43.4274,21.0
43.6884,25.0
43.9494,24.0
44.2105,20.0
44.4717,22.0
44.733,19.0
44.9943,22.0
45.2557,20.0
45.5171,18.0
45.7786,26.0
46.0403,28.0
46.3019,20.0
46.5637,18.0
46.8255,24.0
47.0874,16.0
47.3494,22.0
47.6115,29.0
47.8736,22.0
48.1358,20.0
48.3981,19.0
48.6605,17.0
48.923,28.0
49.1855,17.0
49.4481,13.0
49.7108,25.0
49.9736,18.0
50.2365,23.0
50.4994,23.0
50.7625,25.0
51.0256,17.0
51.2888,18.0
51.5521,17.0
51.8155,20.0
52.079,21.0
52.3426,20.0
52.6062,17.0
52.87,23.0
53.1338,36.0
53.3978,19.0
53.6618,21.0
53.9259,21.0
54.1901,28.0
54.4545,19.0
54.7189,20.0
54.9834,16.0
55.248,19.0
55.5127,21.0
55.7775,20.0
56.0424,19.0
56.3074,16.0
56.5725,24.0
56.8377,16.0
57.103,23.0
57.3685,24.0
57.634,17.0
57.8996,19.0
58.1654,17.0
58.4312,21.0
58.6972,18.0
58.9632,15.0
59.2294,13.0
59.4957,19.0
59.7621,13.0
60.0286,18.0
60.2952,17.0
60.562,16.0
60.8288,29.0
61.0958,17.0
61.3629,11.0
61.6301,20.0
61.8974,20.0
62.1649,16.0
62.4325,16.0
62.7002,16.0
62.968,19.0
63.2359,17.0
63.504,14.0
63.7722,19.0
64.0405,16.0
64.309,15.0
64.5776,17.0
64.8463,17.0
65.1151,17.0
65.3841,22.0
65.6532,19.0
65.9225,12.0
66.1919,16.0
66.4614,19.0
66.7311,18.0
67.0009,19.0
67.2708,20.0
67.5409,16.0
67.8112,24.0
68.0815,23.0
68.3521,19.0
68.6227,22.0
68.8935,19.0
69.1645,18.0
69.4356,10.0
69.7069,16.0
69.9783,14.0
70.2499,22.0
70.5216,21.0
70.7935,13.0
71.0656,17.0
71.3378,12.0
71.6102,16.0
71.8827,11.0
72.1554,15.0
72.4283,18.0
72.7013,22.0
72.9745,20.0
73.2479,20.0
73.5214,20.0
73.7951,18.0
74.069,16.0
74.3431,17.0
74.6173,16.0
74.8917,27.0
75.1663,16.0
75.4411,13.0
75.7161,17.0
75.9912,19.0
76.2665,20.0
76.5421,11.0
76.8178,17.0
77.0937,13.0
77.3698,22.0
77.6461,18.0
77.9226,24.0
78.1992,18.0
78.4761,16.0
78.7532,23.0
79.0305,16.0
79.308,18.0
79.5857,14.0
79.8636,17.0
80.1417,18.0
80.4201,9.0
80.6986,17.0
80.9774,24.0
81.2564,14.0
81.5356,11.0
81.815,12.0
82.0947,15.0
82.3746,18.0
82.6547,13.0
82.935,19.0
83.2156,11.0
83.4964,7.0
83.6241,15.0