File: data/xrd/xy/4_Trifluromethylbenzylammonium_Iodide.lbl_rescaled.xy
# Processed xy data with Haverford two-theta converted to LBL scale
two_theta,intensity
5.81234,336.0
6.06814,26.0
6.32395,8.0
6.57977,6.0
6.8356,8.0
7.09144,9.0
7.34728,3.0
7.60314,6.0
7.85901,6.0
8.11488,8.0
8.37077,7.0
8.62667,9.0
8.88257,7.0
9.1385,6.0
9.39443,8.0
9.65037,5.0
9.90633,5.0
10.1623,10.0
10.4183,5.0
10.6743,8.0
10.9303,5.0
11.1863,9.0
11.4424,20.0
11.6984,169.0
11.9545,180.0
12.2106,8.0
12.4667,6.0
12.7228,6.0
12.9789,4.0
13.2351,6.0
13.4912,7.0
13.7474,5.0
14.0036,8.0
14.2599,5.0
14.5161,7.0
14.7724,4.0
15.0287,4.0
15.285,6.0
15.5413,4.0
15.7976,2.0
16.054,5.0
16.3104,2.0
16.5668,6.0
16.8232,3.0
17.0797,2.0
17.3361,1.0
17.5926,2.0
17.8491,23.0
18.1057,4.0
18.3623,4.0
18.6188,5.0
18.8755,4.0
19.1321,6.0
19.3888,2.0
19.6455,4.0
19.9022,5.0
20.1589,15.0
20.4157,4.0
20.6725,3.0
20.9294,4.0
21.1862,5.0
21.4431,3.0
21.7,3.0
21.957,4.0
22.2139,5.0
22.4709,10.0
22.728,5.0
22.9851,7.0
23.2422,13.0
23.4993,20.0
23.7564,349.0
24.0136,36.0
24.2709,13.0
24.5281,8.0
24.7854,4.0
25.0428,6.0
25.3001,2.0
25.5575,6.0
25.815,13.0
26.0724,4.0
26.3299,5.0
26.5875,5.0
26.8451,6.0
27.1027,4.0
27.3603,5.0
27.618,3.0
27.8758,1.0
28.1335,2.0
28.3913,11.0
28.6492,11.0
28.9071,20.0
29.165,15.0
29.423,36.0
29.681,111.0
29.9391,1644.0
30.1972,44.0
30.4553,17.0
30.7135,11.0
30.9717,13.0
31.23,9.0
31.4883,20.0
31.7467,14.0
32.0051,9.0
32.2635,7.0
32.522,6.0
32.7806,3.0
33.0392,5.0
33.2978,6.0
33.5565,5.0
33.8153,16.0
34.0741,11.0
34.3329,9.0
34.5918,8.0
34.8507,7.0
35.1097,9.0
35.3688,16.0
35.6279,44.0
35.887,256.0
36.1462,1544.0
36.4055,46.0
36.6648,12.0
36.9241,9.0
37.1836,14.0
37.443,8.0
37.7026,8.0
37.9621,7.0
38.2218,6.0
38.4815,2.0
38.7412,7.0
39.0011,7.0
39.2609,8.0
39.5209,6.0
39.7809,4.0
40.0409,8.0
40.3011,2.0
40.5612,9.0
40.8215,4.0
41.0818,4.0
41.3421,7.0
41.6026,5.0
41.8631,13.0
42.1236,78.0
42.3843,735.0
42.645,27.0
42.9057,17.0
43.1665,10.0
43.4274,7.0
43.6884,6.0
43.9494,5.0
44.2105,7.0
44.4717,7.0
44.733,4.0
44.9943,5.0
45.2557,3.0
45.5171,6.0
45.7786,8.0
46.0403,6.0
46.3019,6.0
46.5637,6.0
46.8255,5.0
47.0874,4.0
47.3494,4.0
47.6115,5.0
47.8736,3.0
48.1358,6.0
48.3981,9.0
48.6605,101.0
48.923,103.0
49.1855,5.0
49.4481,10.0
49.7108,11.0
49.9736,4.0
50.2365,5.0
50.4994,4.0
50.7625,3.0
51.0256,3.0
51.2888,4.0
51.5521,5.0
51.8155,16.0
52.079,2.0
52.3426,4.0
52.6062,3.0
52.87,3.0
53.1338,2.0
53.3978,3.0
53.6618,6.0
53.9259,4.0
54.1901,4.0
54.4545,3.0
54.7189,3.0
54.9834,3.0
55.248,7.0
55.5127,9.0
55.7775,6.0
56.0424,6.0
56.3074,5.0
56.5725,3.0
56.8377,4.0
57.103,1.0
57.3685,3.0
57.634,5.0
57.8996,15.0
58.1654,25.0
58.4312,4.0
58.6972,3.0
58.9632,6.0
59.2294,5.0
59.4957,7.0
59.7621,3.0
60.0286,5.0
60.2952,4.0
60.562,5.0
60.8288,5.0
61.0958,9.0
61.3629,6.0
61.6301,2.0
61.8974,5.0
62.1649,14.0
62.4325,1.0
62.7002,1.0
62.968,5.0
63.2359,6.0
63.504,6.0
63.7722,5.0
64.0405,4.0
64.309,9.0
64.5776,22.0
64.8463,21.0
65.1151,6.0
65.3841,6.0
65.6532,5.0
65.9225,9.0
66.1919,3.0
66.4614,5.0
66.7311,2.0
67.0009,3.0
67.2708,8.0
67.5409,8.0
67.8112,3.0
68.0815,5.0
68.3521,7.0
68.6227,3.0
68.8935,7.0
69.1645,49.0
69.4356,23.0
69.7069,9.0
69.9783,6.0
70.2499,5.0
70.5216,6.0
70.7935,13.0
71.0656,5.0
71.3378,7.0
71.6102,8.0
71.8827,9.0
72.1554,5.0
72.4283,6.0
72.7013,6.0
72.9745,8.0
73.2479,11.0
73.5214,6.0
73.7951,5.0
74.069,7.0
74.3431,7.0
74.6173,4.0
74.8917,7.0
75.1663,6.0
75.4411,6.0
75.7161,4.0
75.9912,7.0
76.2665,16.0
76.5421,156.0
76.8178,77.0
77.0937,12.0
77.3698,11.0
77.6461,8.0
77.9226,11.0
78.1992,6.0
78.4761,4.0
78.7532,11.0
79.0305,12.0
79.308,8.0
79.5857,6.0
79.8636,10.0
80.1417,7.0
80.4201,11.0
80.6986,5.0
80.9774,6.0
81.2564,6.0
81.5356,3.0
81.815,8.0
82.0947,5.0
82.3746,7.0
82.6547,8.0
82.935,5.0
83.2156,5.0
83.4964,4.0
83.6241,6.0