File: data/xrd/xy/Acetamidinium_Bromide.lbl_rescaled.xy
# Processed xy data with Haverford two-theta converted to LBL scale
two_theta,intensity
5.81234,3.0
6.06814,8.0
6.32395,5.0
6.57977,4.0
6.8356,3.0
7.09144,3.0
7.34728,7.0
7.60314,4.0
7.85901,5.0
8.11488,6.0
8.37077,6.0
8.62667,7.0
8.88257,5.0
9.1385,6.0
9.39443,3.0
9.65037,7.0
9.90633,4.0
10.1623,5.0
10.4183,4.0
10.6743,4.0
10.9303,2.0
11.1863,7.0
11.4424,4.0
11.6984,3.0
11.9545,3.0
12.2106,5.0
12.4667,6.0
12.7228,4.0
12.9789,4.0
13.2351,7.0
13.4912,4.0
13.7474,5.0
14.0036,5.0
14.2599,6.0
14.5161,4.0
14.7724,4.0
15.0287,4.0
15.285,4.0
15.5413,12.0
15.7976,10.0
16.054,5.0
16.3104,12.0
16.5668,39.0
16.8232,5.0
17.0797,4.0
17.3361,1.0
17.5926,4.0
17.8491,5.0
18.1057,8.0
18.3623,8.0
18.6188,8.0
18.8755,6.0
19.1321,9.0
19.3888,4.0
19.6455,11.0
19.9022,9.0
20.1589,4.0
20.4157,4.0
20.6725,10.0
20.9294,10.0
21.1862,31.0
21.4431,6.0
21.7,3.0
21.957,5.0
22.2139,4.0
22.4709,5.0
22.728,34.0
22.9851,51.0
23.2422,22.0
23.4993,7.0
23.7564,5.0
24.0136,6.0
24.2709,1.0
24.5281,7.0
24.7854,9.0
25.0428,3.0
25.3001,2.0
25.5575,15.0
25.815,237.0
26.0724,43.0
26.3299,15.0
26.5875,13.0
26.8451,22.0
27.1027,4.0
27.3603,5.0
27.618,14.0
27.8758,51.0
28.1335,6.0
28.3913,9.0
28.6492,8.0
28.9071,11.0
29.165,47.0
29.423,200.0
29.681,20.0
29.9391,12.0
30.1972,4.0
30.4553,9.0
30.7135,6.0
30.9717,10.0
31.23,9.0
31.4883,9.0
31.7467,10.0
32.0051,543.0
32.2635,43.0
32.522,9.0
32.7806,14.0
33.0392,40.0
33.2978,12.0
33.5565,49.0
33.8153,6.0
34.0741,59.0
34.3329,10.0
34.5918,6.0
34.8507,10.0
35.1097,30.0
35.3688,17.0
35.6279,5.0
35.887,6.0
36.1462,12.0
36.4055,28.0
36.6648,14.0
36.9241,21.0
37.1836,41.0
37.443,543.0
37.7026,19.0
37.9621,50.0
38.2218,11.0
38.4815,12.0
38.7412,15.0
39.0011,14.0
39.2609,14.0
39.5209,15.0
39.7809,53.0
40.0409,41.0
40.3011,9.0
40.5612,6.0
40.8215,9.0
41.0818,10.0
41.3421,11.0
41.6026,43.0
41.8631,58.0
42.1236,14.0
42.3843,9.0
42.645,18.0
42.9057,20.0
43.1665,24.0
43.4274,22.0
43.6884,6.0
43.9494,10.0
44.2105,9.0
44.4717,11.0
44.733,13.0
44.9943,20.0
45.2557,12.0
45.5171,8.0
45.7786,8.0
46.0403,11.0
46.3019,4.0
46.5637,17.0
46.8255,11.0
47.0874,6.0
47.3494,4.0
47.6115,11.0
47.8736,3.0
48.1358,7.0
48.3981,9.0
48.6605,9.0
48.923,9.0
49.1855,9.0
49.4481,26.0
49.7108,16.0
49.9736,7.0
50.2365,12.0
50.4994,3.0
50.7625,8.0
51.0256,17.0
51.2888,15.0
51.5521,11.0
51.8155,12.0
52.079,5.0
52.3426,9.0
52.6062,13.0
52.87,29.0
53.1338,25.0
53.3978,15.0
53.6618,15.0
53.9259,10.0
54.1901,37.0
54.4545,19.0
54.7189,9.0
54.9834,17.0
55.248,27.0
55.5127,24.0
55.7775,23.0
56.0424,18.0
56.3074,11.0
56.5725,10.0
56.8377,18.0
57.103,27.0
57.3685,45.0
57.634,38.0
57.8996,13.0
58.1654,13.0
58.4312,13.0
58.6972,19.0
58.9632,20.0
59.2294,16.0
59.4957,8.0
59.7621,15.0
60.0286,18.0
60.2952,16.0
60.562,20.0
60.8288,14.0
61.0958,15.0
61.3629,16.0
61.6301,10.0
61.8974,13.0
62.1649,12.0
62.4325,17.0
62.7002,12.0
62.968,10.0
63.2359,21.0
63.504,13.0
63.7722,13.0
64.0405,30.0
64.309,8.0
64.5776,12.0
64.8463,23.0
65.1151,24.0
65.3841,17.0
65.6532,12.0
65.9225,12.0
66.1919,9.0
66.4614,10.0
66.7311,8.0
67.0009,23.0
67.2708,20.0
67.5409,13.0
67.8112,11.0
68.0815,10.0
68.3521,9.0
68.6227,9.0
68.8935,13.0
69.1645,15.0
69.4356,14.0
69.7069,13.0
69.9783,28.0
70.2499,17.0
70.5216,18.0
70.7935,13.0
71.0656,14.0
71.3378,10.0
71.6102,16.0
71.8827,9.0
72.1554,8.0
72.4283,17.0
72.7013,15.0
72.9745,10.0
73.2479,10.0
73.5214,18.0
73.7951,7.0
74.069,8.0
74.3431,9.0
74.6173,24.0
74.8917,14.0
75.1663,16.0
75.4411,11.0
75.7161,11.0
75.9912,17.0
76.2665,15.0
76.5421,12.0
76.8178,8.0
77.0937,16.0
77.3698,7.0
77.6461,10.0
77.9226,4.0
78.1992,12.0
78.4761,10.0
78.7532,6.0
79.0305,7.0
79.308,10.0
79.5857,19.0
79.8636,22.0
80.1417,14.0
80.4201,7.0
80.6986,14.0
80.9774,8.0
81.2564,15.0
81.5356,15.0
81.815,6.0
82.0947,17.0
82.3746,10.0
82.6547,13.0
82.935,10.0
83.2156,9.0
83.4964,16.0
83.6241,7.0