File: data/xrd/xy/Dabco_Iodide.lbl_rescaled.xy
# Processed xy data with Haverford two-theta converted to LBL scale
two_theta,intensity
5.81234,4.0
6.06814,6.0
6.32395,5.0
6.57977,5.0
6.8356,3.0
7.09144,7.0
7.34728,7.0
7.60314,5.0
7.85901,3.0
8.11488,3.0
8.37077,5.0
8.62667,5.0
8.88257,4.0
9.1385,6.0
9.39443,3.0
9.65037,0.0
9.90633,4.0
10.1623,2.0
10.4183,6.0
10.6743,2.0
10.9303,6.0
11.1863,6.0
11.4424,4.0
11.6984,6.0
11.9545,5.0
12.2106,6.0
12.4667,8.0
12.7228,0.0
12.9789,3.0
13.2351,6.0
13.4912,7.0
13.7474,2.0
14.0036,5.0
14.2599,7.0
14.5161,6.0
14.7724,7.0
15.0287,6.0
15.285,5.0
15.5413,5.0
15.7976,4.0
16.054,7.0
16.3104,5.0
16.5668,5.0
16.8232,6.0
17.0797,8.0
17.3361,8.0
17.5926,28.0
17.8491,77.0
18.1057,31.0
18.3623,8.0
18.6188,3.0
18.8755,8.0
19.1321,6.0
19.3888,4.0
19.6455,6.0
19.9022,4.0
20.1589,3.0
20.4157,3.0
20.6725,3.0
20.9294,7.0
21.1862,4.0
21.4431,0.0
21.7,4.0
21.957,7.0
22.2139,4.0
22.4709,7.0
22.728,8.0
22.9851,7.0
23.2422,22.0
23.4993,168.0
23.7564,103.0
24.0136,69.0
24.2709,12.0
24.5281,7.0
24.7854,4.0
25.0428,6.0
25.3001,8.0
25.5575,10.0
25.815,5.0
26.0724,5.0
26.3299,20.0
26.5875,199.0
26.8451,12.0
27.1027,27.0
27.3603,314.0
27.618,12.0
27.8758,10.0
28.1335,8.0
28.3913,4.0
28.6492,10.0
28.9071,10.0
29.165,12.0
29.423,3.0
29.681,6.0
29.9391,8.0
30.1972,3.0
30.4553,6.0
30.7135,9.0
30.9717,46.0
31.23,63.0
31.4883,7.0
31.7467,13.0
32.0051,14.0
32.2635,54.0
32.522,61.0
32.7806,51.0
33.0392,14.0
33.2978,76.0
33.5565,11.0
33.8153,8.0
34.0741,8.0
34.3329,5.0
34.5918,8.0
34.8507,5.0
35.1097,9.0
35.3688,4.0
35.6279,10.0
35.887,43.0
36.1462,124.0
36.4055,15.0
36.6648,25.0
36.9241,87.0
37.1836,9.0
37.443,7.0
37.7026,7.0
37.9621,7.0
38.2218,6.0
38.4815,7.0
38.7412,14.0
39.0011,5.0
39.2609,56.0
39.5209,87.0
39.7809,9.0
40.0409,9.0
40.3011,6.0
40.5612,10.0
40.8215,7.0
41.0818,3.0
41.3421,22.0
41.6026,43.0
41.8631,15.0
42.1236,27.0
42.3843,25.0
42.645,26.0
42.9057,16.0
43.1665,44.0
43.4274,7.0
43.6884,29.0
43.9494,5.0
44.2105,8.0
44.4717,8.0
44.733,9.0
44.9943,12.0
45.2557,74.0
45.5171,26.0
45.7786,53.0
46.0403,76.0
46.3019,15.0
46.5637,44.0
46.8255,14.0
47.0874,12.0
47.3494,16.0
47.6115,23.0
47.8736,7.0
48.1358,13.0
48.3981,47.0
48.6605,11.0
48.923,32.0
49.1855,9.0
49.4481,6.0
49.7108,11.0
49.9736,14.0
50.2365,10.0
50.4994,7.0
50.7625,8.0
51.0256,38.0
51.2888,25.0
51.5521,5.0
51.8155,4.0
52.079,3.0
52.3426,8.0
52.6062,8.0
52.87,4.0
53.1338,10.0
53.3978,6.0
53.6618,6.0
53.9259,11.0
54.1901,6.0
54.4545,4.0
54.7189,13.0
54.9834,15.0
55.248,25.0
55.5127,13.0
55.7775,17.0
56.0424,25.0
56.3074,11.0
56.5725,45.0
56.8377,16.0
57.103,24.0
57.3685,16.0
57.634,17.0
57.8996,11.0
58.1654,20.0
58.4312,11.0
58.6972,9.0
58.9632,10.0
59.2294,22.0
59.4957,7.0
59.7621,22.0
60.0286,7.0
60.2952,27.0
60.562,20.0
60.8288,22.0
61.0958,23.0
61.3629,10.0
61.6301,25.0
61.8974,11.0
62.1649,19.0
62.4325,23.0
62.7002,63.0
62.968,20.0
63.2359,10.0
63.504,13.0
63.7722,14.0
64.0405,15.0
64.309,13.0
64.5776,13.0
64.8463,13.0
65.1151,14.0
65.3841,20.0
65.6532,19.0
65.9225,9.0
66.1919,10.0
66.4614,9.0
66.7311,8.0
67.0009,10.0
67.2708,9.0
67.5409,12.0
67.8112,20.0
68.0815,15.0
68.3521,7.0
68.6227,6.0
68.8935,15.0
69.1645,11.0
69.4356,7.0
69.7069,15.0
69.9783,11.0
70.2499,7.0
70.5216,9.0
70.7935,6.0
71.0656,7.0
71.3378,9.0
71.6102,14.0
71.8827,11.0
72.1554,12.0
72.4283,8.0
72.7013,11.0
72.9745,8.0
73.2479,6.0
73.5214,21.0
73.7951,18.0
74.069,9.0
74.3431,10.0
74.6173,7.0
74.8917,5.0
75.1663,12.0
75.4411,13.0
75.7161,23.0
75.9912,22.0
76.2665,11.0
76.5421,26.0
76.8178,18.0
77.0937,16.0
77.3698,10.0
77.6461,8.0
77.9226,17.0
78.1992,16.0
78.4761,18.0
78.7532,12.0
79.0305,7.0
79.308,10.0
79.5857,9.0
79.8636,12.0
80.1417,11.0
80.4201,9.0
80.6986,9.0
80.9774,11.0
81.2564,6.0
81.5356,11.0
81.815,12.0
82.0947,4.0
82.3746,8.0
82.6547,5.0
82.935,17.0
83.2156,6.0
83.4964,11.0
83.6241,5.0