File: data/xrd/xy/Dimethylammmonium_Bromide.lbl_rescaled.xy
# Processed xy data with Haverford two-theta converted to LBL scale
two_theta,intensity
5.81234,5.0
6.06814,3.0
6.32395,3.0
6.57977,6.0
6.8356,5.0
7.09144,5.0
7.34728,2.0
7.60314,10.0
7.85901,4.0
8.11488,4.0
8.37077,7.0
8.62667,9.0
8.88257,10.0
9.1385,5.0
9.39443,8.0
9.65037,9.0
9.90633,6.0
10.1623,5.0
10.4183,6.0
10.6743,9.0
10.9303,3.0
11.1863,8.0
11.4424,5.0
11.6984,5.0
11.9545,6.0
12.2106,5.0
12.4667,5.0
12.7228,7.0
12.9789,4.0
13.2351,4.0
13.4912,4.0
13.7474,8.0
14.0036,3.0
14.2599,9.0
14.5161,19.0
14.7724,83.0
15.0287,18.0
15.285,56.0
15.5413,7.0
15.7976,5.0
16.054,6.0
16.3104,3.0
16.5668,3.0
16.8232,4.0
17.0797,5.0
17.3361,6.0
17.5926,8.0
17.8491,4.0
18.1057,4.0
18.3623,6.0
18.6188,8.0
18.8755,5.0
19.1321,5.0
19.3888,7.0
19.6455,3.0
19.9022,4.0
20.1589,9.0
20.4157,17.0
20.6725,108.0
20.9294,19.0
21.1862,57.0
21.4431,59.0
21.7,40.0
21.957,19.0
22.2139,9.0
22.4709,5.0
22.728,5.0
22.9851,9.0
23.2422,8.0
23.4993,7.0
23.7564,7.0
24.0136,3.0
24.2709,6.0
24.5281,6.0
24.7854,12.0
25.0428,82.0
25.3001,13.0
25.5575,64.0
25.815,4.0
26.0724,10.0
26.3299,12.0
26.5875,6.0
26.8451,8.0
27.1027,7.0
27.3603,10.0
27.618,7.0
27.8758,8.0
28.1335,6.0
28.3913,14.0
28.6492,15.0
28.9071,16.0
29.165,33.0
29.423,100.0
29.681,3677.0
29.9391,155.0
30.1972,62.0
30.4553,241.0
30.7135,1244.0
30.9717,296.0
31.23,36.0
31.4883,19.0
31.7467,13.0
32.0051,16.0
32.2635,18.0
32.522,116.0
32.7806,29.0
33.0392,23.0
33.2978,11.0
33.5565,34.0
33.8153,17.0
34.0741,10.0
34.3329,13.0
34.5918,11.0
34.8507,15.0
35.1097,15.0
35.3688,13.0
35.6279,11.0
35.887,19.0
36.1462,10.0
36.4055,26.0
36.6648,138.0
36.9241,16.0
37.1836,13.0
37.443,17.0
37.7026,15.0
37.9621,14.0
38.2218,9.0
38.4815,22.0
38.7412,10.0
39.0011,7.0
39.2609,7.0
39.5209,6.0
39.7809,6.0
40.0409,8.0
40.3011,9.0
40.5612,8.0
40.8215,12.0
41.0818,7.0
41.3421,18.0
41.6026,15.0
41.8631,14.0
42.1236,52.0
42.3843,55.0
42.645,15.0
42.9057,6.0
43.1665,10.0
43.4274,18.0
43.6884,21.0
43.9494,20.0
44.2105,27.0
44.4717,42.0
44.733,25.0
44.9943,15.0
45.2557,192.0
45.5171,17.0
45.7786,27.0
46.0403,14.0
46.3019,10.0
46.5637,12.0
46.8255,29.0
47.0874,55.0
47.3494,26.0
47.6115,27.0
47.8736,19.0
48.1358,10.0
48.3981,17.0
48.6605,27.0
48.923,28.0
49.1855,23.0
49.4481,52.0
49.7108,22.0
49.9736,12.0
50.2365,53.0
50.4994,22.0
50.7625,11.0
51.0256,15.0
51.2888,10.0
51.5521,11.0
51.8155,12.0
52.079,11.0
52.3426,10.0
52.6062,11.0
52.87,13.0
53.1338,12.0
53.3978,9.0
53.6618,9.0
53.9259,10.0
54.1901,20.0
54.4545,11.0
54.7189,9.0
54.9834,28.0
55.248,33.0
55.5127,20.0
55.7775,8.0
56.0424,10.0
56.3074,9.0
56.5725,12.0
56.8377,12.0
57.103,48.0
57.3685,27.0
57.634,14.0
57.8996,27.0
58.1654,16.0
58.4312,11.0
58.6972,15.0
58.9632,13.0
59.2294,18.0
59.4957,16.0
59.7621,21.0
60.0286,20.0
60.2952,18.0
60.562,15.0
60.8288,16.0
61.0958,24.0
61.3629,39.0
61.6301,71.0
61.8974,37.0
62.1649,18.0
62.4325,14.0
62.7002,24.0
62.968,59.0
63.2359,17.0
63.504,14.0
63.7722,16.0
64.0405,21.0
64.309,16.0
64.5776,25.0
64.8463,17.0
65.1151,16.0
65.3841,47.0
65.6532,15.0
65.9225,11.0
66.1919,8.0
66.4614,13.0
66.7311,12.0
67.0009,15.0
67.2708,20.0
67.5409,12.0
67.8112,15.0
68.0815,17.0
68.3521,18.0
68.6227,14.0
68.8935,15.0
69.1645,13.0
69.4356,10.0
69.7069,13.0
69.9783,15.0
70.2499,12.0
70.5216,18.0
70.7935,18.0
71.0656,28.0
71.3378,14.0
71.6102,16.0
71.8827,13.0
72.1554,12.0
72.4283,14.0
72.7013,15.0
72.9745,11.0
73.2479,11.0
73.5214,10.0
73.7951,18.0
74.069,14.0
74.3431,8.0
74.6173,15.0
74.8917,18.0
75.1663,16.0
75.4411,14.0
75.7161,8.0
75.9912,2.0
76.2665,9.0
76.5421,9.0
76.8178,17.0
77.0937,14.0
77.3698,21.0
77.6461,22.0
77.9226,14.0
78.1992,21.0
78.4761,12.0
78.7532,12.0
79.0305,13.0
79.308,33.0
79.5857,27.0
79.8636,24.0
80.1417,8.0
80.4201,12.0
80.6986,11.0
80.9774,18.0
81.2564,13.0
81.5356,15.0
81.815,12.0
82.0947,11.0
82.3746,11.0
82.6547,11.0
82.935,16.0
83.2156,16.0
83.4964,11.0
83.6241,16.0