File: data/xrd/xy/isobutylammonium_bromide.lbl_rescaled.xy
# Processed xy data with Haverford two-theta converted to LBL scale
two_theta,intensity
5.81234,8.0
6.06814,6.0
6.32395,10.0
6.57977,11.0
6.8356,10.0
7.09144,6.0
7.34728,9.0
7.60314,7.0
7.85901,10.0
8.11488,29.0
8.37077,304.0
8.62667,6832.0
8.88257,39.0
9.1385,6.0
9.39443,7.0
9.65037,3.0
9.90633,7.0
10.1623,6.0
10.4183,9.0
10.6743,10.0
10.9303,7.0
11.1863,5.0
11.4424,6.0
11.6984,8.0
11.9545,5.0
12.2106,3.0
12.4667,5.0
12.7228,5.0
12.9789,5.0
13.2351,7.0
13.4912,4.0
13.7474,6.0
14.0036,5.0
14.2599,5.0
14.5161,3.0
14.7724,7.0
15.0287,2.0
15.285,4.0
15.5413,8.0
15.7976,3.0
16.054,10.0
16.3104,9.0
16.5668,10.0
16.8232,60.0
17.0797,922.0
17.3361,142.0
17.5926,26.0
17.8491,10.0
18.1057,9.0
18.3623,12.0
18.6188,7.0
18.8755,9.0
19.1321,7.0
19.3888,5.0
19.6455,6.0
19.9022,3.0
20.1589,8.0
20.4157,11.0
20.6725,8.0
20.9294,4.0
21.1862,7.0
21.4431,5.0
21.7,5.0
21.957,7.0
22.2139,6.0
22.4709,6.0
22.728,8.0
22.9851,5.0
23.2422,5.0
23.4993,2.0
23.7564,10.0
24.0136,4.0
24.2709,14.0
24.5281,11.0
24.7854,29.0
25.0428,16.0
25.3001,49.0
25.5575,97.0
25.815,2257.0
26.0724,247.0
26.3299,37.0
26.5875,18.0
26.8451,21.0
27.1027,25.0
27.3603,16.0
27.618,19.0
27.8758,19.0
28.1335,9.0
28.3913,9.0
28.6492,13.0
28.9071,10.0
29.165,10.0
29.423,8.0
29.681,8.0
29.9391,16.0
30.1972,19.0
30.4553,18.0
30.7135,12.0
30.9717,16.0
31.23,25.0
31.4883,19.0
31.7467,18.0
32.0051,19.0
32.2635,24.0
32.522,24.0
32.7806,22.0
33.0392,27.0
33.2978,31.0
33.5565,29.0
33.8153,43.0
34.0741,50.0
34.3329,133.0
34.5918,926.0
34.8507,3707.0
35.1097,151.0
35.3688,59.0
35.6279,43.0
35.887,38.0
36.1462,35.0
36.4055,26.0
36.6648,25.0
36.9241,63.0
37.1836,20.0
37.443,13.0
37.7026,12.0
37.9621,13.0
38.2218,19.0
38.4815,14.0
38.7412,13.0
39.0011,15.0
39.2609,12.0
39.5209,14.0
39.7809,19.0
40.0409,11.0
40.3011,11.0
40.5612,13.0
40.8215,12.0
41.0818,9.0
41.3421,8.0
41.6026,22.0
41.8631,12.0
42.1236,11.0
42.3843,8.0
42.645,8.0
42.9057,10.0
43.1665,8.0
43.4274,19.0
43.6884,83.0
43.9494,116.0
44.2105,12.0
44.4717,12.0
44.733,7.0
44.9943,10.0
45.2557,9.0
45.5171,11.0
45.7786,9.0
46.0403,9.0
46.3019,7.0
46.5637,7.0
46.8255,6.0
47.0874,4.0
47.3494,5.0
47.6115,18.0
47.8736,11.0
48.1358,11.0
48.3981,11.0
48.6605,8.0
48.923,10.0
49.1855,6.0
49.4481,5.0
49.7108,7.0
49.9736,8.0
50.2365,7.0
50.4994,9.0
50.7625,9.0
51.0256,9.0
51.2888,8.0
51.5521,15.0
51.8155,5.0
52.079,12.0
52.3426,14.0
52.6062,13.0
52.87,17.0
53.1338,71.0
53.3978,94.0
53.6618,19.0
53.9259,12.0
54.1901,11.0
54.4545,16.0
54.7189,12.0
54.9834,15.0
55.248,16.0
55.5127,15.0
55.7775,10.0
56.0424,14.0
56.3074,12.0
56.5725,22.0
56.8377,26.0
57.103,13.0
57.3685,12.0
57.634,11.0
57.8996,12.0
58.1654,11.0
58.4312,12.0
58.6972,7.0
58.9632,11.0
59.2294,14.0
59.4957,12.0
59.7621,8.0
60.0286,12.0
60.2952,10.0
60.562,9.0
60.8288,10.0
61.0958,13.0
61.3629,12.0
61.6301,11.0
61.8974,12.0
62.1649,13.0
62.4325,10.0
62.7002,20.0
62.968,94.0
63.2359,67.0
63.504,12.0
63.7722,15.0
64.0405,17.0
64.309,10.0
64.5776,18.0
64.8463,11.0
65.1151,10.0
65.3841,10.0
65.6532,12.0
65.9225,14.0
66.1919,16.0
66.4614,9.0
66.7311,12.0
67.0009,9.0
67.2708,8.0
67.5409,4.0
67.8112,10.0
68.0815,12.0
68.3521,9.0
68.6227,9.0
68.8935,14.0
69.1645,20.0
69.4356,15.0
69.7069,13.0
69.9783,19.0
70.2499,15.0
70.5216,9.0
70.7935,7.0
71.0656,9.0
71.3378,8.0
71.6102,8.0
71.8827,12.0
72.1554,11.0
72.4283,24.0
72.7013,9.0
72.9745,17.0
73.2479,24.0
73.5214,50.0
73.7951,14.0
74.069,6.0
74.3431,14.0
74.6173,11.0
74.8917,4.0
75.1663,10.0
75.4411,12.0
75.7161,6.0
75.9912,5.0
76.2665,12.0
76.5421,15.0
76.8178,14.0
77.0937,13.0
77.3698,8.0
77.6461,11.0
77.9226,5.0
78.1992,8.0
78.4761,13.0
78.7532,9.0
79.0305,8.0
79.308,8.0
79.5857,13.0
79.8636,3.0
80.1417,10.0
80.4201,8.0
80.6986,12.0
80.9774,7.0
81.2564,8.0
81.5356,11.0
81.815,6.0
82.0947,5.0
82.3746,8.0
82.6547,9.0
82.935,9.0
83.2156,6.0
83.4964,13.0
83.6241,6.0