File: data/xrd/xy/methylammonium_bromide.lbl_rescaled.xy
# Processed xy data with Haverford two-theta converted to LBL scale
two_theta,intensity
5.81234,6.0
6.06814,6.0
6.32395,2.0
6.57977,4.0
6.8356,3.0
7.09144,3.0
7.34728,1.0
7.60314,5.0
7.85901,5.0
8.11488,4.0
8.37077,6.0
8.62667,2.0
8.88257,5.0
9.1385,6.0
9.39443,5.0
9.65037,1.0
9.90633,4.0
10.1623,6.0
10.4183,0.0
10.6743,6.0
10.9303,5.0
11.1863,9.0
11.4424,21.0
11.6984,245.0
11.9545,109.0
12.2106,6.0
12.4667,3.0
12.7228,3.0
12.9789,6.0
13.2351,5.0
13.4912,2.0
13.7474,6.0
14.0036,5.0
14.2599,10.0
14.5161,9.0
14.7724,4.0
15.0287,4.0
15.285,7.0
15.5413,7.0
15.7976,5.0
16.054,6.0
16.3104,6.0
16.5668,7.0
16.8232,10.0
17.0797,5.0
17.3361,5.0
17.5926,6.0
17.8491,4.0
18.1057,6.0
18.3623,8.0
18.6188,6.0
18.8755,8.0
19.1321,12.0
19.3888,5.0
19.6455,16.0
19.9022,6.0
20.1589,8.0
20.4157,11.0
20.6725,13.0
20.9294,5.0
21.1862,9.0
21.4431,12.0
21.7,15.0
21.957,8.0
22.2139,17.0
22.4709,15.0
22.728,19.0
22.9851,27.0
23.2422,63.0
23.4993,622.0
23.7564,578.0
24.0136,37.0
24.2709,47.0
24.5281,103.0
24.7854,92.0
25.0428,17.0
25.3001,16.0
25.5575,13.0
25.815,8.0
26.0724,16.0
26.3299,18.0
26.5875,12.0
26.8451,12.0
27.1027,16.0
27.3603,9.0
27.618,19.0
27.8758,16.0
28.1335,13.0
28.3913,12.0
28.6492,12.0
28.9071,12.0
29.165,15.0
29.423,17.0
29.681,12.0
29.9391,24.0
30.1972,48.0
30.4553,152.0
30.7135,285.0
30.9717,26.0
31.23,20.0
31.4883,15.0
31.7467,44.0
32.0051,173.0
32.2635,349.0
32.522,45.0
32.7806,50.0
33.0392,46.0
33.2978,19.0
33.5565,18.0
33.8153,13.0
34.0741,7.0
34.3329,15.0
34.5918,16.0
34.8507,17.0
35.1097,24.0
35.3688,50.0
35.6279,326.0
35.887,252.0
36.1462,25.0
36.4055,18.0
36.6648,17.0
36.9241,12.0
37.1836,13.0
37.443,9.0
37.7026,12.0
37.9621,12.0
38.2218,15.0
38.4815,19.0
38.7412,80.0
39.0011,166.0
39.2609,40.0
39.5209,14.0
39.7809,14.0
40.0409,11.0
40.3011,15.0
40.5612,13.0
40.8215,9.0
41.0818,9.0
41.3421,14.0
41.6026,16.0
41.8631,24.0
42.1236,46.0
42.3843,18.0
42.645,13.0
42.9057,18.0
43.1665,15.0
43.4274,26.0
43.6884,108.0
43.9494,40.0
44.2105,19.0
44.4717,9.0
44.733,12.0
44.9943,12.0
45.2557,14.0
45.5171,24.0
45.7786,13.0
46.0403,9.0
46.3019,6.0
46.5637,12.0
46.8255,14.0
47.0874,15.0
47.3494,51.0
47.6115,170.0
47.8736,122.0
48.1358,26.0
48.3981,23.0
48.6605,14.0
48.923,11.0
49.1855,16.0
49.4481,12.0
49.7108,16.0
49.9736,21.0
50.2365,74.0
50.4994,62.0
50.7625,94.0
51.0256,45.0
51.2888,17.0
51.5521,14.0
51.8155,11.0
52.079,15.0
52.3426,12.0
52.6062,19.0
52.87,22.0
53.1338,52.0
53.3978,152.0
53.6618,30.0
53.9259,18.0
54.1901,14.0
54.4545,12.0
54.7189,14.0
54.9834,32.0
55.248,106.0
55.5127,69.0
55.7775,14.0
56.0424,7.0
56.3074,13.0
56.5725,13.0
56.8377,15.0
57.103,13.0
57.3685,26.0
57.634,74.0
57.8996,39.0
58.1654,19.0
58.4312,12.0
58.6972,12.0
58.9632,11.0
59.2294,11.0
59.4957,11.0
59.7621,14.0
60.0286,13.0
60.2952,9.0
60.562,11.0
60.8288,12.0
61.0958,16.0
61.3629,62.0
61.6301,54.0
61.8974,15.0
62.1649,16.0
62.4325,18.0
62.7002,13.0
62.968,13.0
63.2359,19.0
63.504,45.0
63.7722,26.0
64.0405,8.0
64.309,14.0
64.5776,18.0
64.8463,14.0
65.1151,13.0
65.3841,15.0
65.6532,19.0
65.9225,20.0
66.1919,13.0
66.4614,13.0
66.7311,11.0
67.0009,11.0
67.2708,14.0
67.5409,12.0
67.8112,8.0
68.0815,10.0
68.3521,10.0
68.6227,30.0
68.8935,34.0
69.1645,36.0
69.4356,16.0
69.7069,23.0
69.9783,57.0
70.2499,64.0
70.5216,29.0
70.7935,19.0
71.0656,24.0
71.3378,77.0
71.6102,43.0
71.8827,37.0
72.1554,30.0
72.4283,24.0
72.7013,19.0
72.9745,25.0
73.2479,24.0
73.5214,18.0
73.7951,18.0
74.069,7.0
74.3431,18.0
74.6173,15.0
74.8917,36.0
75.1663,31.0
75.4411,26.0
75.7161,20.0
75.9912,19.0
76.2665,10.0
76.5421,16.0
76.8178,20.0
77.0937,28.0
77.3698,25.0
77.6461,9.0
77.9226,13.0
78.1992,40.0
78.4761,44.0
78.7532,18.0
79.0305,18.0
79.308,15.0
79.5857,11.0
79.8636,12.0
80.1417,13.0
80.4201,14.0
80.6986,11.0
80.9774,9.0
81.2564,14.0
81.5356,8.0
81.815,13.0
82.0947,22.0
82.3746,28.0
82.6547,14.0
82.935,39.0
83.2156,32.0
83.4964,37.0
83.6241,38.0