File: data/xrd/xy/N,N_Dimethylethane_1,2_Diammonium_Iodide.lbl_rescaled.xy
# Processed xy data with Haverford two-theta converted to LBL scale
two_theta,intensity
5.81234,6.0
6.06814,4.0
6.32395,6.0
6.57977,3.0
6.8356,6.0
7.09144,6.0
7.34728,3.0
7.60314,3.0
7.85901,5.0
8.11488,7.0
8.37077,3.0
8.62667,4.0
8.88257,4.0
9.1385,3.0
9.39443,5.0
9.65037,6.0
9.90633,6.0
10.1623,2.0
10.4183,5.0
10.6743,7.0
10.9303,7.0
11.1863,0.0
11.4424,4.0
11.6984,3.0
11.9545,5.0
12.2106,3.0
12.4667,6.0
12.7228,5.0
12.9789,4.0
13.2351,3.0
13.4912,4.0
13.7474,4.0
14.0036,3.0
14.2599,6.0
14.5161,2.0
14.7724,3.0
15.0287,4.0
15.285,6.0
15.5413,4.0
15.7976,6.0
16.054,6.0
16.3104,6.0
16.5668,7.0
16.8232,3.0
17.0797,4.0
17.3361,3.0
17.5926,3.0
17.8491,6.0
18.1057,1.0
18.3623,1.0
18.6188,8.0
18.8755,3.0
19.1321,10.0
19.3888,10.0
19.6455,8.0
19.9022,10.0
20.1589,4.0
20.4157,5.0
20.6725,7.0
20.9294,6.0
21.1862,3.0
21.4431,3.0
21.7,6.0
21.957,2.0
22.2139,3.0
22.4709,6.0
22.728,9.0
22.9851,21.0
23.2422,8.0
23.4993,7.0
23.7564,2.0
24.0136,4.0
24.2709,13.0
24.5281,17.0
24.7854,26.0
25.0428,14.0
25.3001,14.0
25.5575,5.0
25.815,4.0
26.0724,1.0
26.3299,4.0
26.5875,15.0
26.8451,14.0
27.1027,19.0
27.3603,19.0
27.618,30.0
27.8758,6.0
28.1335,16.0
28.3913,14.0
28.6492,18.0
28.9071,31.0
29.165,4.0
29.423,4.0
29.681,9.0
29.9391,4.0
30.1972,4.0
30.4553,6.0
30.7135,41.0
30.9717,19.0
31.23,5.0
31.4883,3.0
31.7467,8.0
32.0051,13.0
32.2635,4.0
32.522,12.0
32.7806,13.0
33.0392,8.0
33.2978,8.0
33.5565,3.0
33.8153,8.0
34.0741,15.0
34.3329,4.0
34.5918,1.0
34.8507,7.0
35.1097,1.0
35.3688,6.0
35.6279,15.0
35.887,7.0
36.1462,4.0
36.4055,11.0
36.6648,13.0
36.9241,7.0
37.1836,4.0
37.443,8.0
37.7026,5.0
37.9621,7.0
38.2218,2.0
38.4815,6.0
38.7412,12.0
39.0011,5.0
39.2609,3.0
39.5209,7.0
39.7809,4.0
40.0409,9.0
40.3011,2.0
40.5612,9.0
40.8215,6.0
41.0818,6.0
41.3421,13.0
41.6026,21.0
41.8631,3.0
42.1236,5.0
42.3843,11.0
42.645,4.0
42.9057,1.0
43.1665,8.0
43.4274,6.0
43.6884,4.0
43.9494,7.0
44.2105,5.0
44.4717,11.0
44.733,3.0
44.9943,2.0
45.2557,5.0
45.5171,7.0
45.7786,10.0
46.0403,6.0
46.3019,8.0
46.5637,16.0
46.8255,13.0
47.0874,12.0
47.3494,6.0
47.6115,16.0
47.8736,9.0
48.1358,12.0
48.3981,5.0
48.6605,6.0
48.923,2.0
49.1855,8.0
49.4481,15.0
49.7108,17.0
49.9736,5.0
50.2365,1.0
50.4994,2.0
50.7625,7.0
51.0256,5.0
51.2888,6.0
51.5521,8.0
51.8155,5.0
52.079,7.0
52.3426,6.0
52.6062,4.0
52.87,3.0
53.1338,3.0
53.3978,4.0
53.6618,6.0
53.9259,4.0
54.1901,6.0
54.4545,9.0
54.7189,3.0
54.9834,4.0
55.248,5.0
55.5127,4.0
55.7775,6.0
56.0424,8.0
56.3074,6.0
56.5725,4.0
56.8377,4.0
57.103,6.0
57.3685,4.0
57.634,4.0
57.8996,9.0
58.1654,8.0
58.4312,6.0
58.6972,3.0
58.9632,5.0
59.2294,7.0
59.4957,8.0
59.7621,6.0
60.0286,9.0
60.2952,6.0
60.562,11.0
60.8288,6.0
61.0958,4.0
61.3629,9.0
61.6301,4.0
61.8974,8.0
62.1649,7.0
62.4325,8.0
62.7002,11.0
62.968,8.0
63.2359,8.0
63.504,7.0
63.7722,7.0
64.0405,8.0
64.309,8.0
64.5776,5.0
64.8463,3.0
65.1151,5.0
65.3841,6.0
65.6532,7.0
65.9225,8.0
66.1919,4.0
66.4614,8.0
66.7311,8.0
67.0009,4.0
67.2708,8.0
67.5409,6.0
67.8112,7.0
68.0815,7.0
68.3521,9.0
68.6227,10.0
68.8935,4.0
69.1645,4.0
69.4356,13.0
69.7069,11.0
69.9783,5.0
70.2499,6.0
70.5216,5.0
70.7935,1.0
71.0656,4.0
71.3378,5.0
71.6102,7.0
71.8827,7.0
72.1554,9.0
72.4283,7.0
72.7013,2.0
72.9745,7.0
73.2479,5.0
73.5214,6.0
73.7951,6.0
74.069,7.0
74.3431,8.0
74.6173,2.0
74.8917,7.0
75.1663,2.0
75.4411,8.0
75.7161,8.0
75.9912,8.0
76.2665,5.0
76.5421,2.0
76.8178,6.0
77.0937,4.0
77.3698,3.0
77.6461,6.0
77.9226,2.0
78.1992,5.0
78.4761,0.0
78.7532,4.0
79.0305,4.0
79.308,7.0
79.5857,11.0
79.8636,8.0
80.1417,4.0
80.4201,4.0
80.6986,8.0
80.9774,10.0
81.2564,9.0
81.5356,2.0
81.815,3.0
82.0947,5.0
82.3746,4.0
82.6547,7.0
82.935,7.0
83.2156,4.0
83.4964,2.0
83.6241,7.0