File: data/xrd/xy/N,N_Diethylpropane_1,3_Diammonium_Iodide.lbl_rescaled.xy
# Processed xy data with Haverford two-theta converted to LBL scale
two_theta,intensity
5.81234,7.0
6.06814,6.0
6.32395,10.0
6.57977,3.0
6.8356,8.0
7.09144,11.0
7.34728,7.0
7.60314,10.0
7.85901,12.0
8.11488,4.0
8.37077,7.0
8.62667,5.0
8.88257,7.0
9.1385,5.0
9.39443,7.0
9.65037,10.0
9.90633,5.0
10.1623,3.0
10.4183,2.0
10.6743,4.0
10.9303,3.0
11.1863,8.0
11.4424,5.0
11.6984,6.0
11.9545,3.0
12.2106,10.0
12.4667,12.0
12.7228,5.0
12.9789,4.0
13.2351,4.0
13.4912,3.0
13.7474,5.0
14.0036,5.0
14.2599,5.0
14.5161,6.0
14.7724,12.0
15.0287,7.0
15.285,5.0
15.5413,6.0
15.7976,7.0
16.054,5.0
16.3104,4.0
16.5668,5.0
16.8232,5.0
17.0797,5.0
17.3361,2.0
17.5926,7.0
17.8491,9.0
18.1057,10.0
18.3623,31.0
18.6188,11.0
18.8755,8.0
19.1321,6.0
19.3888,11.0
19.6455,7.0
19.9022,6.0
20.1589,6.0
20.4157,3.0
20.6725,6.0
20.9294,17.0
21.1862,22.0
21.4431,8.0
21.7,5.0
21.957,4.0
22.2139,2.0
22.4709,5.0
22.728,2.0
22.9851,9.0
23.2422,6.0
23.4993,9.0
23.7564,34.0
24.0136,10.0
24.2709,6.0
24.5281,3.0
24.7854,6.0
25.0428,6.0
25.3001,3.0
25.5575,6.0
25.815,5.0
26.0724,6.0
26.3299,7.0
26.5875,5.0
26.8451,16.0
27.1027,51.0
27.3603,75.0
27.618,29.0
27.8758,12.0
28.1335,7.0
28.3913,17.0
28.6492,21.0
28.9071,6.0
29.165,5.0
29.423,3.0
29.681,2.0
29.9391,12.0
30.1972,26.0
30.4553,9.0
30.7135,19.0
30.9717,6.0
31.23,19.0
31.4883,4.0
31.7467,4.0
32.0051,1.0
32.2635,7.0
32.522,3.0
32.7806,8.0
33.0392,4.0
33.2978,11.0
33.5565,45.0
33.8153,27.0
34.0741,7.0
34.3329,5.0
34.5918,6.0
34.8507,24.0
35.1097,6.0
35.3688,6.0
35.6279,15.0
35.887,14.0
36.1462,10.0
36.4055,3.0
36.6648,1.0
36.9241,6.0
37.1836,5.0
37.443,6.0
37.7026,35.0
37.9621,5.0
38.2218,7.0
38.4815,6.0
38.7412,4.0
39.0011,10.0
39.2609,33.0
39.5209,8.0
39.7809,3.0
40.0409,4.0
40.3011,6.0
40.5612,6.0
40.8215,29.0
41.0818,13.0
41.3421,3.0
41.6026,0.0
41.8631,1.0
42.1236,6.0
42.3843,4.0
42.645,16.0
42.9057,5.0
43.1665,5.0
43.4274,4.0
43.6884,8.0
43.9494,6.0
44.2105,3.0
44.4717,2.0
44.733,6.0
44.9943,6.0
45.2557,5.0
45.5171,14.0
45.7786,29.0
46.0403,5.0
46.3019,7.0
46.5637,12.0
46.8255,37.0
47.0874,9.0
47.3494,4.0
47.6115,6.0
47.8736,8.0
48.1358,9.0
48.3981,36.0
48.6605,13.0
48.923,10.0
49.1855,11.0
49.4481,10.0
49.7108,7.0
49.9736,6.0
50.2365,13.0
50.4994,8.0
50.7625,3.0
51.0256,6.0
51.2888,3.0
51.5521,10.0
51.8155,16.0
52.079,7.0
52.3426,4.0
52.6062,10.0
52.87,7.0
53.1338,8.0
53.3978,9.0
53.6618,5.0
53.9259,7.0
54.1901,6.0
54.4545,6.0
54.7189,5.0
54.9834,3.0
55.248,4.0
55.5127,7.0
55.7775,26.0
56.0424,6.0
56.3074,7.0
56.5725,12.0
56.8377,11.0
57.103,6.0
57.3685,8.0
57.634,5.0
57.8996,3.0
58.1654,3.0
58.4312,13.0
58.6972,7.0
58.9632,9.0
59.2294,5.0
59.4957,7.0
59.7621,11.0
60.0286,5.0
60.2952,11.0
60.562,11.0
60.8288,8.0
61.0958,9.0
61.3629,11.0
61.6301,9.0
61.8974,11.0
62.1649,3.0
62.4325,9.0
62.7002,20.0
62.968,5.0
63.2359,10.0
63.504,6.0
63.7722,17.0
64.0405,7.0
64.309,6.0
64.5776,3.0
64.8463,12.0
65.1151,14.0
65.3841,5.0
65.6532,7.0
65.9225,5.0
66.1919,6.0
66.4614,5.0
66.7311,9.0
67.0009,14.0
67.2708,9.0
67.5409,14.0
67.8112,6.0
68.0815,9.0
68.3521,8.0
68.6227,11.0
68.8935,11.0
69.1645,9.0
69.4356,13.0
69.7069,9.0
69.9783,8.0
70.2499,16.0
70.5216,6.0
70.7935,5.0
71.0656,16.0
71.3378,13.0
71.6102,7.0
71.8827,7.0
72.1554,7.0
72.4283,3.0
72.7013,2.0
72.9745,14.0
73.2479,13.0
73.5214,4.0
73.7951,9.0
74.069,4.0
74.3431,5.0
74.6173,7.0
74.8917,16.0
75.1663,12.0
75.4411,11.0
75.7161,7.0
75.9912,6.0
76.2665,3.0
76.5421,7.0
76.8178,5.0
77.0937,7.0
77.3698,6.0
77.6461,5.0
77.9226,5.0
78.1992,7.0
78.4761,3.0
78.7532,6.0
79.0305,6.0
79.308,5.0
79.5857,4.0
79.8636,3.0
80.1417,6.0
80.4201,3.0
80.6986,2.0
80.9774,6.0
81.2564,6.0
81.5356,8.0
81.815,13.0
82.0947,6.0
82.3746,4.0
82.6547,6.0
82.935,4.0
83.2156,6.0
83.4964,7.0
83.6241,6.0