File: data/xrd/xy/n-Dodcylammonium_Bromide.lbl_rescaled.xy
# Processed xy data with Haverford two-theta converted to LBL scale
two_theta,intensity
5.81234,1778.0
6.06814,11.0
6.32395,6.0
6.57977,6.0
6.8356,7.0
7.09144,7.0
7.34728,7.0
7.60314,8.0
7.85901,6.0
8.11488,7.0
8.37077,6.0
8.62667,4.0
8.88257,5.0
9.1385,8.0
9.39443,7.0
9.65037,4.0
9.90633,7.0
10.1623,2.0
10.4183,7.0
10.6743,7.0
10.9303,12.0
11.1863,90.0
11.4424,801.0
11.6984,105.0
11.9545,7.0
12.2106,5.0
12.4667,3.0
12.7228,4.0
12.9789,8.0
13.2351,2.0
13.4912,3.0
13.7474,8.0
14.0036,7.0
14.2599,3.0
14.5161,7.0
14.7724,5.0
15.0287,1.0
15.285,4.0
15.5413,2.0
15.7976,5.0
16.054,6.0
16.3104,9.0
16.5668,8.0
16.8232,18.0
17.0797,82.0
17.3361,1490.0
17.5926,55.0
17.8491,13.0
18.1057,7.0
18.3623,3.0
18.6188,7.0
18.8755,7.0
19.1321,3.0
19.3888,5.0
19.6455,2.0
19.9022,5.0
20.1589,8.0
20.4157,12.0
20.6725,14.0
20.9294,11.0
21.1862,10.0
21.4431,5.0
21.7,10.0
21.957,7.0
22.2139,8.0
22.4709,11.0
22.728,14.0
22.9851,69.0
23.2422,1109.0
23.4993,51.0
23.7564,17.0
24.0136,17.0
24.2709,8.0
24.5281,8.0
24.7854,20.0
25.0428,14.0
25.3001,21.0
25.5575,29.0
25.815,46.0
26.0724,9.0
26.3299,5.0
26.5875,9.0
26.8451,5.0
27.1027,10.0
27.3603,4.0
27.618,20.0
27.8758,6.0
28.1335,13.0
28.3913,36.0
28.6492,25.0
28.9071,57.0
29.165,552.0
29.423,43.0
29.681,29.0
29.9391,25.0
30.1972,14.0
30.4553,12.0
30.7135,8.0
30.9717,0.0
31.23,13.0
31.4883,7.0
31.7467,7.0
32.0051,12.0
32.2635,11.0
32.522,12.0
32.7806,43.0
33.0392,28.0
33.2978,18.0
33.5565,26.0
33.8153,8.0
34.0741,6.0
34.3329,18.0
34.5918,27.0
34.8507,30.0
35.1097,165.0
35.3688,28.0
35.6279,7.0
35.887,13.0
36.1462,9.0
36.4055,7.0
36.6648,14.0
36.9241,16.0
37.1836,10.0
37.443,9.0
37.7026,16.0
37.9621,13.0
38.2218,49.0
38.4815,35.0
38.7412,26.0
39.0011,21.0
39.2609,10.0
39.5209,13.0
39.7809,21.0
40.0409,12.0
40.3011,7.0
40.5612,6.0
40.8215,15.0
41.0818,18.0
41.3421,49.0
41.6026,16.0
41.8631,13.0
42.1236,10.0
42.3843,19.0
42.645,13.0
42.9057,14.0
43.1665,11.0
43.4274,13.0
43.6884,10.0
43.9494,60.0
44.2105,58.0
44.4717,35.0
44.733,11.0
44.9943,11.0
45.2557,11.0
45.5171,19.0
45.7786,14.0
46.0403,12.0
46.3019,11.0
46.5637,13.0
46.8255,8.0
47.0874,11.0
47.3494,11.0
47.6115,10.0
47.8736,11.0
48.1358,10.0
48.3981,7.0
48.6605,8.0
48.923,9.0
49.1855,8.0
49.4481,9.0
49.7108,13.0
49.9736,13.0
50.2365,20.0
50.4994,14.0
50.7625,15.0
51.0256,13.0
51.2888,15.0
51.5521,13.0
51.8155,10.0
52.079,10.0
52.3426,10.0
52.6062,7.0
52.87,8.0
53.1338,7.0
53.3978,11.0
53.6618,9.0
53.9259,11.0
54.1901,12.0
54.4545,16.0
54.7189,9.0
54.9834,14.0
55.248,12.0
55.5127,14.0
55.7775,13.0
56.0424,18.0
56.3074,35.0
56.5725,20.0
56.8377,15.0
57.103,13.0
57.3685,25.0
57.634,51.0
57.8996,17.0
58.1654,10.0
58.4312,7.0
58.6972,11.0
58.9632,10.0
59.2294,11.0
59.4957,14.0
59.7621,11.0
60.0286,11.0
60.2952,11.0
60.562,14.0
60.8288,6.0
61.0958,11.0
61.3629,9.0
61.6301,8.0
61.8974,10.0
62.1649,8.0
62.4325,13.0
62.7002,34.0
62.968,26.0
63.2359,13.0
63.504,8.0
63.7722,9.0
64.0405,12.0
64.309,8.0
64.5776,7.0
64.8463,9.0
65.1151,11.0
65.3841,6.0
65.6532,9.0
65.9225,11.0
66.1919,20.0
66.4614,12.0
66.7311,7.0
67.0009,13.0
67.2708,14.0
67.5409,10.0
67.8112,7.0
68.0815,7.0
68.3521,10.0
68.6227,8.0
68.8935,10.0
69.1645,21.0
69.4356,21.0
69.7069,10.0
69.9783,5.0
70.2499,11.0
70.5216,11.0
70.7935,10.0
71.0656,12.0
71.3378,8.0
71.6102,8.0
71.8827,13.0
72.1554,10.0
72.4283,10.0
72.7013,9.0
72.9745,9.0
73.2479,8.0
73.5214,7.0
73.7951,12.0
74.069,7.0
74.3431,11.0
74.6173,10.0
74.8917,6.0
75.1663,3.0
75.4411,10.0
75.7161,9.0
75.9912,6.0
76.2665,12.0
76.5421,10.0
76.8178,5.0
77.0937,8.0
77.3698,13.0
77.6461,16.0
77.9226,5.0
78.1992,11.0
78.4761,5.0
78.7532,6.0
79.0305,6.0
79.308,9.0
79.5857,3.0
79.8636,10.0
80.1417,10.0
80.4201,6.0
80.6986,4.0
80.9774,10.0
81.2564,11.0
81.5356,7.0
81.815,7.0
82.0947,8.0
82.3746,6.0
82.6547,5.0
82.935,7.0
83.2156,8.0
83.4964,6.0
83.6241,9.0