File: data/xrd/xy/n-Hexylammonium_Iodide.lbl_rescaled.xy
# Processed xy data with Haverford two-theta converted to LBL scale
two_theta,intensity
5.81234,4.0
6.06814,10.0
6.32395,25.0
6.57977,13.0
6.8356,7.0
7.09144,3.0
7.34728,5.0
7.60314,2.0
7.85901,3.0
8.11488,3.0
8.37077,1.0
8.62667,3.0
8.88257,0.0
9.1385,4.0
9.39443,2.0
9.65037,3.0
9.90633,5.0
10.1623,7.0
10.4183,3.0
10.6743,3.0
10.9303,5.0
11.1863,0.0
11.4424,1.0
11.6984,3.0
11.9545,1.0
12.2106,2.0
12.4667,3.0
12.7228,3.0
12.9789,0.0
13.2351,0.0
13.4912,2.0
13.7474,3.0
14.0036,5.0
14.2599,0.0
14.5161,6.0
14.7724,4.0
15.0287,2.0
15.285,0.0
15.5413,2.0
15.7976,2.0
16.054,5.0
16.3104,5.0
16.5668,3.0
16.8232,1.0
17.0797,2.0
17.3361,4.0
17.5926,3.0
17.8491,4.0
18.1057,7.0
18.3623,5.0
18.6188,2.0
18.8755,6.0
19.1321,10.0
19.3888,33.0
19.6455,16.0
19.9022,13.0
20.1589,5.0
20.4157,2.0
20.6725,6.0
20.9294,8.0
21.1862,44.0
21.4431,18.0
21.7,30.0
21.957,18.0
22.2139,13.0
22.4709,16.0
22.728,14.0
22.9851,10.0
23.2422,9.0
23.4993,10.0
23.7564,8.0
24.0136,11.0
24.2709,8.0
24.5281,7.0
24.7854,15.0
25.0428,12.0
25.3001,28.0
25.5575,30.0
25.815,84.0
26.0724,180.0
26.3299,48.0
26.5875,78.0
26.8451,44.0
27.1027,40.0
27.3603,20.0
27.618,20.0
27.8758,29.0
28.1335,27.0
28.3913,45.0
28.6492,30.0
28.9071,32.0
29.165,28.0
29.423,31.0
29.681,27.0
29.9391,15.0
30.1972,11.0
30.4553,6.0
30.7135,9.0
30.9717,8.0
31.23,6.0
31.4883,9.0
31.7467,22.0
32.0051,62.0
32.2635,36.0
32.522,44.0
32.7806,41.0
33.0392,13.0
33.2978,15.0
33.5565,12.0
33.8153,15.0
34.0741,12.0
34.3329,4.0
34.5918,11.0
34.8507,13.0
35.1097,11.0
35.3688,15.0
35.6279,14.0
35.887,13.0
36.1462,3.0
36.4055,10.0
36.6648,12.0
36.9241,10.0
37.1836,12.0
37.443,22.0
37.7026,29.0
37.9621,19.0
38.2218,15.0
38.4815,9.0
38.7412,10.0
39.0011,22.0
39.2609,20.0
39.5209,16.0
39.7809,21.0
40.0409,18.0
40.3011,24.0
40.5612,19.0
40.8215,12.0
41.0818,16.0
41.3421,14.0
41.6026,9.0
41.8631,15.0
42.1236,9.0
42.3843,10.0
42.645,11.0
42.9057,21.0
43.1665,30.0
43.4274,28.0
43.6884,19.0
43.9494,15.0
44.2105,12.0
44.4717,8.0
44.733,10.0
44.9943,11.0
45.2557,13.0
45.5171,12.0
45.7786,21.0
46.0403,12.0
46.3019,21.0
46.5637,17.0
46.8255,16.0
47.0874,14.0
47.3494,21.0
47.6115,24.0
47.8736,34.0
48.1358,22.0
48.3981,15.0
48.6605,22.0
48.923,18.0
49.1855,14.0
49.4481,18.0
49.7108,10.0
49.9736,12.0
50.2365,21.0
50.4994,14.0
50.7625,15.0
51.0256,9.0
51.2888,13.0
51.5521,9.0
51.8155,12.0
52.079,15.0
52.3426,16.0
52.6062,14.0
52.87,13.0
53.1338,15.0
53.3978,16.0
53.6618,11.0
53.9259,9.0
54.1901,7.0
54.4545,11.0
54.7189,13.0
54.9834,10.0
55.248,7.0
55.5127,9.0
55.7775,8.0
56.0424,12.0
56.3074,8.0
56.5725,11.0
56.8377,7.0
57.103,11.0
57.3685,14.0
57.634,13.0
57.8996,14.0
58.1654,14.0
58.4312,9.0
58.6972,16.0
58.9632,14.0
59.2294,8.0
59.4957,13.0
59.7621,9.0
60.0286,9.0
60.2952,13.0
60.562,9.0
60.8288,17.0
61.0958,11.0
61.3629,6.0
61.6301,11.0
61.8974,10.0
62.1649,11.0
62.4325,11.0
62.7002,14.0
62.968,11.0
63.2359,16.0
63.504,8.0
63.7722,13.0
64.0405,13.0
64.309,14.0
64.5776,15.0
64.8463,17.0
65.1151,9.0
65.3841,20.0
65.6532,18.0
65.9225,20.0
66.1919,9.0
66.4614,7.0
66.7311,12.0
67.0009,10.0
67.2708,14.0
67.5409,14.0
67.8112,16.0
68.0815,15.0
68.3521,13.0
68.6227,12.0
68.8935,9.0
69.1645,12.0
69.4356,13.0
69.7069,11.0
69.9783,13.0
70.2499,9.0
70.5216,7.0
70.7935,9.0
71.0656,10.0
71.3378,18.0
71.6102,10.0
71.8827,15.0
72.1554,8.0
72.4283,11.0
72.7013,8.0
72.9745,23.0
73.2479,11.0
73.5214,8.0
73.7951,13.0
74.069,14.0
74.3431,8.0
74.6173,6.0
74.8917,11.0
75.1663,15.0
75.4411,5.0
75.7161,13.0
75.9912,7.0
76.2665,4.0
76.5421,8.0
76.8178,7.0
77.0937,12.0
77.3698,11.0
77.6461,10.0
77.9226,12.0
78.1992,16.0
78.4761,14.0
78.7532,6.0
79.0305,12.0
79.308,12.0
79.5857,7.0
79.8636,11.0
80.1417,5.0
80.4201,12.0
80.6986,3.0
80.9774,12.0
81.2564,9.0
81.5356,7.0
81.815,6.0
82.0947,8.0
82.3746,9.0
82.6547,14.0
82.935,7.0
83.2156,7.0
83.4964,8.0
83.6241,8.0