File: data/xrd/xy/Pbi_DMSO.lbl_rescaled.xy
# Processed xy data with Haverford two-theta converted to LBL scale
two_theta,intensity
5.81234,5.0
6.06814,9.0
6.32395,9.0
6.57977,5.0
6.8356,4.0
7.09144,4.0
7.34728,5.0
7.60314,5.0
7.85901,6.0
8.11488,4.0
8.37077,6.0
8.62667,4.0
8.88257,6.0
9.1385,5.0
9.39443,2.0
9.65037,1.0
9.90633,7.0
10.1623,6.0
10.4183,6.0
10.6743,3.0
10.9303,5.0
11.1863,5.0
11.4424,37.0
11.6984,204.0
11.9545,1035.0
12.2106,18.0
12.4667,5.0
12.7228,3.0
12.9789,2.0
13.2351,2.0
13.4912,5.0
13.7474,4.0
14.0036,2.0
14.2599,13.0
14.5161,24.0
14.7724,265.0
15.0287,18.0
15.285,4.0
15.5413,5.0
15.7976,7.0
16.054,0.0
16.3104,10.0
16.5668,6.0
16.8232,6.0
17.0797,1.0
17.3361,1.0
17.5926,5.0
17.8491,2.0
18.1057,1.0
18.3623,3.0
18.6188,11.0
18.8755,5.0
19.1321,1.0
19.3888,3.0
19.6455,5.0
19.9022,1.0
20.1589,4.0
20.4157,2.0
20.6725,7.0
20.9294,7.0
21.1862,4.0
21.4431,4.0
21.7,3.0
21.957,6.0
22.2139,7.0
22.4709,5.0
22.728,6.0
22.9851,9.0
23.2422,6.0
23.4993,5.0
23.7564,18.0
24.0136,52.0
24.2709,115.0
24.5281,14.0
24.7854,5.0
25.0428,7.0
25.3001,6.0
25.5575,8.0
25.815,50.0
26.0724,6.0
26.3299,7.0
26.5875,5.0
26.8451,3.0
27.1027,3.0
27.3603,14.0
27.618,10.0
27.8758,4.0
28.1335,3.0
28.3913,3.0
28.6492,5.0
28.9071,3.0
29.165,7.0
29.423,25.0
29.681,115.0
29.9391,320.0
30.1972,18.0
30.4553,9.0
30.7135,7.0
30.9717,6.0
31.23,5.0
31.4883,11.0
31.7467,7.0
32.0051,5.0
32.2635,5.0
32.522,4.0
32.7806,6.0
33.0392,11.0
33.2978,151.0
33.5565,22.0
33.8153,8.0
34.0741,6.0
34.3329,7.0
34.5918,6.0
34.8507,3.0
35.1097,5.0
35.3688,7.0
35.6279,8.0
35.887,7.0
36.1462,6.0
36.4055,7.0
36.6648,5.0
36.9241,7.0
37.1836,47.0
37.443,29.0
37.7026,46.0
37.9621,5.0
38.2218,8.0
38.4815,8.0
38.7412,17.0
39.0011,40.0
39.2609,3.0
39.5209,5.0
39.7809,7.0
40.0409,9.0
40.3011,11.0
40.5612,10.0
40.8215,83.0
41.0818,4.0
41.3421,8.0
41.6026,6.0
41.8631,6.0
42.1236,6.0
42.3843,7.0
42.645,93.0
42.9057,11.0
43.1665,78.0
43.4274,16.0
43.6884,7.0
43.9494,13.0
44.2105,9.0
44.4717,6.0
44.733,8.0
44.9943,5.0
45.2557,13.0
45.5171,28.0
45.7786,68.0
46.0403,10.0
46.3019,8.0
46.5637,31.0
46.8255,24.0
47.0874,6.0
47.3494,8.0
47.6115,18.0
47.8736,10.0
48.1358,35.0
48.3981,174.0
48.6605,29.0
48.923,286.0
49.1855,55.0
49.4481,14.0
49.7108,6.0
49.9736,10.0
50.2365,7.0
50.4994,6.0
50.7625,7.0
51.0256,8.0
51.2888,5.0
51.5521,8.0
51.8155,8.0
52.079,5.0
52.3426,8.0
52.6062,8.0
52.87,9.0
53.1338,29.0
53.3978,52.0
53.6618,14.0
53.9259,9.0
54.1901,7.0
54.4545,12.0
54.7189,24.0
54.9834,8.0
55.248,13.0
55.5127,18.0
55.7775,11.0
56.0424,8.0
56.3074,12.0
56.5725,17.0
56.8377,7.0
57.103,7.0
57.3685,5.0
57.634,11.0
57.8996,9.0
58.1654,6.0
58.4312,6.0
58.6972,4.0
58.9632,7.0
59.2294,10.0
59.4957,8.0
59.7621,9.0
60.0286,11.0
60.2952,21.0
60.562,32.0
60.8288,27.0
61.0958,9.0
61.3629,8.0
61.6301,13.0
61.8974,20.0
62.1649,74.0
62.4325,244.0
62.7002,17.0
62.968,12.0
63.2359,13.0
63.504,9.0
63.7722,15.0
64.0405,9.0
64.309,8.0
64.5776,8.0
64.8463,6.0
65.1151,8.0
65.3841,5.0
65.6532,10.0
65.9225,6.0
66.1919,6.0
66.4614,3.0
66.7311,28.0
67.0009,14.0
67.2708,13.0
67.5409,10.0
67.8112,8.0
68.0815,5.0
68.3521,5.0
68.6227,6.0
68.8935,5.0
69.1645,7.0
69.4356,15.0
69.7069,10.0
69.9783,12.0
70.2499,13.0
70.5216,10.0
70.7935,7.0
71.0656,5.0
71.3378,9.0
71.6102,10.0
71.8827,11.0
72.1554,12.0
72.4283,8.0
72.7013,5.0
72.9745,9.0
73.2479,9.0
73.5214,21.0
73.7951,9.0
74.069,19.0
74.3431,18.0
74.6173,25.0
74.8917,15.0
75.1663,15.0
75.4411,10.0
75.7161,10.0
75.9912,24.0
76.2665,14.0
76.5421,10.0
76.8178,108.0
77.0937,16.0
77.3698,11.0
77.6461,9.0
77.9226,26.0
78.1992,18.0
78.4761,13.0
78.7532,5.0
79.0305,8.0
79.308,9.0
79.5857,6.0
79.8636,13.0
80.1417,11.0
80.4201,9.0
80.6986,12.0
80.9774,11.0
81.2564,20.0
81.5356,14.0
81.815,12.0
82.0947,7.0
82.3746,4.0
82.6547,9.0
82.935,9.0
83.2156,5.0
83.4964,9.0
83.6241,10.0