File: data/xrd/xy/phenethylammonium_iodide.lbl_rescaled.xy
# Processed xy data with Haverford two-theta converted to LBL scale
two_theta,intensity
5.81234,6.0
6.06814,5.0
6.32395,7.0
6.57977,4.0
6.8356,2.0
7.09144,6.0
7.34728,5.0
7.60314,6.0
7.85901,7.0
8.11488,6.0
8.37077,3.0
8.62667,4.0
8.88257,3.0
9.1385,4.0
9.39443,7.0
9.65037,5.0
9.90633,3.0
10.1623,7.0
10.4183,14.0
10.6743,112.0
10.9303,27.0
11.1863,4.0
11.4424,3.0
11.6984,2.0
11.9545,4.0
12.2106,7.0
12.4667,3.0
12.7228,3.0
12.9789,3.0
13.2351,2.0
13.4912,9.0
13.7474,6.0
14.0036,6.0
14.2599,6.0
14.5161,6.0
14.7724,6.0
15.0287,5.0
15.285,8.0
15.5413,8.0
15.7976,4.0
16.054,3.0
16.3104,4.0
16.5668,5.0
16.8232,5.0
17.0797,5.0
17.3361,9.0
17.5926,3.0
17.8491,3.0
18.1057,6.0
18.3623,5.0
18.6188,8.0
18.8755,10.0
19.1321,4.0
19.3888,1.0
19.6455,5.0
19.9022,3.0
20.1589,5.0
20.4157,10.0
20.6725,4.0
20.9294,4.0
21.1862,21.0
21.4431,232.0
21.7,205.0
21.957,25.0
22.2139,11.0
22.4709,22.0
22.728,225.0
22.9851,49.0
23.2422,5.0
23.4993,6.0
23.7564,6.0
24.0136,4.0
24.2709,8.0
24.5281,13.0
24.7854,5.0
25.0428,5.0
25.3001,10.0
25.5575,27.0
25.815,130.0
26.0724,21.0
26.3299,5.0
26.5875,13.0
26.8451,51.0
27.1027,424.0
27.3603,21.0
27.618,10.0
27.8758,8.0
28.1335,21.0
28.3913,80.0
28.6492,64.0
28.9071,77.0
29.165,40.0
29.423,49.0
29.681,100.0
29.9391,17.0
30.1972,13.0
30.4553,17.0
30.7135,10.0
30.9717,7.0
31.23,6.0
31.4883,5.0
31.7467,8.0
32.0051,9.0
32.2635,15.0
32.522,182.0
32.7806,162.0
33.0392,10.0
33.2978,9.0
33.5565,12.0
33.8153,30.0
34.0741,16.0
34.3329,8.0
34.5918,7.0
34.8507,7.0
35.1097,4.0
35.3688,8.0
35.6279,7.0
35.887,22.0
36.1462,19.0
36.4055,3.0
36.6648,3.0
36.9241,6.0
37.1836,7.0
37.443,7.0
37.7026,8.0
37.9621,7.0
38.2218,123.0
38.4815,32.0
38.7412,13.0
39.0011,10.0
39.2609,13.0
39.5209,24.0
39.7809,48.0
40.0409,9.0
40.3011,9.0
40.5612,26.0
40.8215,28.0
41.0818,30.0
41.3421,12.0
41.6026,3.0
41.8631,8.0
42.1236,10.0
42.3843,12.0
42.645,10.0
42.9057,4.0
43.1665,7.0
43.4274,25.0
43.6884,41.0
43.9494,103.0
44.2105,32.0
44.4717,11.0
44.733,7.0
44.9943,4.0
45.2557,7.0
45.5171,7.0
45.7786,7.0
46.0403,10.0
46.3019,14.0
46.5637,16.0
46.8255,10.0
47.0874,16.0
47.3494,20.0
47.6115,5.0
47.8736,7.0
48.1358,15.0
48.3981,27.0
48.6605,30.0
48.923,52.0
49.1855,17.0
49.4481,22.0
49.7108,20.0
49.9736,16.0
50.2365,6.0
50.4994,6.0
50.7625,6.0
51.0256,16.0
51.2888,20.0
51.5521,4.0
51.8155,7.0
52.079,5.0
52.3426,11.0
52.6062,8.0
52.87,12.0
53.1338,33.0
53.3978,19.0
53.6618,6.0
53.9259,13.0
54.1901,31.0
54.4545,25.0
54.7189,6.0
54.9834,9.0
55.248,5.0
55.5127,7.0
55.7775,29.0
56.0424,17.0
56.3074,5.0
56.5725,6.0
56.8377,7.0
57.103,13.0
57.3685,7.0
57.634,6.0
57.8996,4.0
58.1654,8.0
58.4312,8.0
58.6972,10.0
58.9632,7.0
59.2294,13.0
59.4957,12.0
59.7621,16.0
60.0286,34.0
60.2952,19.0
60.562,8.0
60.8288,8.0
61.0958,10.0
61.3629,12.0
61.6301,6.0
61.8974,13.0
62.1649,23.0
62.4325,9.0
62.7002,8.0
62.968,8.0
63.2359,11.0
63.504,10.0
63.7722,11.0
64.0405,13.0
64.309,7.0
64.5776,5.0
64.8463,6.0
65.1151,12.0
65.3841,16.0
65.6532,14.0
65.9225,15.0
66.1919,13.0
66.4614,14.0
66.7311,11.0
67.0009,12.0
67.2708,16.0
67.5409,15.0
67.8112,8.0
68.0815,8.0
68.3521,28.0
68.6227,18.0
68.8935,14.0
69.1645,10.0
69.4356,10.0
69.7069,19.0
69.9783,20.0
70.2499,12.0
70.5216,8.0
70.7935,12.0
71.0656,6.0
71.3378,11.0
71.6102,8.0
71.8827,8.0
72.1554,6.0
72.4283,5.0
72.7013,6.0
72.9745,9.0
73.2479,5.0
73.5214,9.0
73.7951,13.0
74.069,8.0
74.3431,4.0
74.6173,10.0
74.8917,9.0
75.1663,13.0
75.4411,11.0
75.7161,11.0
75.9912,12.0
76.2665,11.0
76.5421,5.0
76.8178,9.0
77.0937,11.0
77.3698,7.0
77.6461,4.0
77.9226,7.0
78.1992,5.0
78.4761,6.0
78.7532,8.0
79.0305,6.0
79.308,4.0
79.5857,12.0
79.8636,12.0
80.1417,10.0
80.4201,10.0
80.6986,6.0
80.9774,7.0
81.2564,5.0
81.5356,4.0
81.815,8.0
82.0947,16.0
82.3746,7.0
82.6547,9.0
82.935,6.0
83.2156,8.0
83.4964,8.0
83.6241,4.0