File: data/xrd/xy/Piperidinium_Iodide.lbl_rescaled.xy
# Processed xy data with Haverford two-theta converted to LBL scale
two_theta,intensity
5.81234,2.0
6.06814,3.0
6.32395,2.0
6.57977,4.0
6.8356,2.0
7.09144,1.0
7.34728,2.0
7.60314,3.0
7.85901,3.0
8.11488,6.0
8.37077,3.0
8.62667,2.0
8.88257,2.0
9.1385,3.0
9.39443,0.0
9.65037,1.0
9.90633,0.0
10.1623,3.0
10.4183,4.0
10.6743,3.0
10.9303,6.0
11.1863,62.0
11.4424,6.0
11.6984,1.0
11.9545,5.0
12.2106,2.0
12.4667,2.0
12.7228,2.0
12.9789,2.0
13.2351,5.0
13.4912,3.0
13.7474,2.0
14.0036,2.0
14.2599,4.0
14.5161,3.0
14.7724,4.0
15.0287,2.0
15.285,4.0
15.5413,3.0
15.7976,8.0
16.054,4.0
16.3104,35.0
16.5668,11.0
16.8232,2.0
17.0797,5.0
17.3361,0.0
17.5926,3.0
17.8491,2.0
18.1057,1.0
18.3623,1.0
18.6188,8.0
18.8755,26.0
19.1321,13.0
19.3888,7.0
19.6455,4.0
19.9022,2.0
20.1589,3.0
20.4157,27.0
20.6725,10.0
20.9294,1.0
21.1862,6.0
21.4431,6.0
21.7,17.0
21.957,30.0
22.2139,215.0
22.4709,17.0
22.728,8.0
22.9851,50.0
23.2422,100.0
23.4993,5.0
23.7564,4.0
24.0136,3.0
24.2709,11.0
24.5281,12.0
24.7854,8.0
25.0428,3.0
25.3001,15.0
25.5575,71.0
25.815,64.0
26.0724,17.0
26.3299,45.0
26.5875,58.0
26.8451,67.0
27.1027,44.0
27.3603,5.0
27.618,5.0
27.8758,8.0
28.1335,5.0
28.3913,24.0
28.6492,46.0
28.9071,30.0
29.165,29.0
29.423,8.0
29.681,8.0
29.9391,7.0
30.1972,5.0
30.4553,5.0
30.7135,8.0
30.9717,3.0
31.23,4.0
31.4883,6.0
31.7467,7.0
32.0051,8.0
32.2635,10.0
32.522,37.0
32.7806,82.0
33.0392,38.0
33.2978,52.0
33.5565,142.0
33.8153,15.0
34.0741,15.0
34.3329,9.0
34.5918,7.0
34.8507,20.0
35.1097,50.0
35.3688,13.0
35.6279,28.0
35.887,26.0
36.1462,20.0
36.4055,26.0
36.6648,6.0
36.9241,7.0
37.1836,3.0
37.443,4.0
37.7026,9.0
37.9621,25.0
38.2218,43.0
38.4815,29.0
38.7412,21.0
39.0011,2.0
39.2609,17.0
39.5209,18.0
39.7809,26.0
40.0409,17.0
40.3011,14.0
40.5612,15.0
40.8215,9.0
41.0818,8.0
41.3421,24.0
41.6026,30.0
41.8631,8.0
42.1236,6.0
42.3843,4.0
42.645,10.0
42.9057,7.0
43.1665,7.0
43.4274,6.0
43.6884,15.0
43.9494,17.0
44.2105,40.0
44.4717,12.0
44.733,10.0
44.9943,24.0
45.2557,11.0
45.5171,11.0
45.7786,23.0
46.0403,15.0
46.3019,6.0
46.5637,13.0
46.8255,4.0
47.0874,9.0
47.3494,10.0
47.6115,8.0
47.8736,13.0
48.1358,3.0
48.3981,5.0
48.6605,7.0
48.923,4.0
49.1855,16.0
49.4481,20.0
49.7108,37.0
49.9736,13.0
50.2365,11.0
50.4994,9.0
50.7625,15.0
51.0256,10.0
51.2888,20.0
51.5521,20.0
51.8155,10.0
52.079,24.0
52.3426,21.0
52.6062,19.0
52.87,16.0
53.1338,32.0
53.3978,17.0
53.6618,17.0
53.9259,9.0
54.1901,9.0
54.4545,9.0
54.7189,12.0
54.9834,15.0
55.248,13.0
55.5127,8.0
55.7775,9.0
56.0424,9.0
56.3074,9.0
56.5725,8.0
56.8377,19.0
57.103,32.0
57.3685,29.0
57.634,13.0
57.8996,4.0
58.1654,9.0
58.4312,7.0
58.6972,9.0
58.9632,9.0
59.2294,27.0
59.4957,15.0
59.7621,13.0
60.0286,13.0
60.2952,13.0
60.562,10.0
60.8288,11.0
61.0958,18.0
61.3629,13.0
61.6301,19.0
61.8974,6.0
62.1649,7.0
62.4325,11.0
62.7002,6.0
62.968,7.0
63.2359,9.0
63.504,7.0
63.7722,10.0
64.0405,12.0
64.309,16.0
64.5776,9.0
64.8463,10.0
65.1151,15.0
65.3841,15.0
65.6532,21.0
65.9225,10.0
66.1919,9.0
66.4614,7.0
66.7311,7.0
67.0009,6.0
67.2708,8.0
67.5409,6.0
67.8112,7.0
68.0815,11.0
68.3521,11.0
68.6227,9.0
68.8935,8.0
69.1645,12.0
69.4356,8.0
69.7069,9.0
69.9783,13.0
70.2499,14.0
70.5216,12.0
70.7935,8.0
71.0656,11.0
71.3378,15.0
71.6102,8.0
71.8827,8.0
72.1554,11.0
72.4283,6.0
72.7013,13.0
72.9745,11.0
73.2479,10.0
73.5214,7.0
73.7951,11.0
74.069,12.0
74.3431,11.0
74.6173,7.0
74.8917,11.0
75.1663,14.0
75.4411,7.0
75.7161,10.0
75.9912,9.0
76.2665,11.0
76.5421,3.0
76.8178,7.0
77.0937,5.0
77.3698,7.0
77.6461,7.0
77.9226,4.0
78.1992,5.0
78.4761,9.0
78.7532,6.0
79.0305,5.0
79.308,6.0
79.5857,7.0
79.8636,10.0
80.1417,10.0
80.4201,9.0
80.6986,3.0
80.9774,10.0
81.2564,8.0
81.5356,9.0
81.815,11.0
82.0947,11.0
82.3746,3.0
82.6547,13.0
82.935,13.0
83.2156,5.0
83.4964,10.0
83.6241,10.0