File: data/xrd/xy/Quincilinidium_Bromide.lbl_rescaled.xy
# Processed xy data with Haverford two-theta converted to LBL scale
two_theta,intensity
5.81234,11.0
6.06814,6.0
6.32395,5.0
6.57977,7.0
6.8356,7.0
7.09144,7.0
7.34728,6.0
7.60314,6.0
7.85901,6.0
8.11488,4.0
8.37077,7.0
8.62667,5.0
8.88257,6.0
9.1385,2.0
9.39443,5.0
9.65037,6.0
9.90633,3.0
10.1623,3.0
10.4183,3.0
10.6743,93.0
10.9303,4.0
11.1863,6.0
11.4424,5.0
11.6984,7.0
11.9545,7.0
12.2106,6.0
12.4667,6.0
12.7228,5.0
12.9789,3.0
13.2351,7.0
13.4912,6.0
13.7474,4.0
14.0036,5.0
14.2599,5.0
14.5161,5.0
14.7724,5.0
15.0287,4.0
15.285,6.0
15.5413,5.0
15.7976,5.0
16.054,6.0
16.3104,6.0
16.5668,5.0
16.8232,5.0
17.0797,6.0
17.3361,2.0
17.5926,5.0
17.8491,6.0
18.1057,5.0
18.3623,7.0
18.6188,6.0
18.8755,7.0
19.1321,6.0
19.3888,6.0
19.6455,17.0
19.9022,14.0
20.1589,6.0
20.4157,6.0
20.6725,11.0
20.9294,7.0
21.1862,31.0
21.4431,194.0
21.7,375.0
21.957,981.0
22.2139,23.0
22.4709,7.0
22.728,10.0
22.9851,6.0
23.2422,4.0
23.4993,7.0
23.7564,8.0
24.0136,9.0
24.2709,18.0
24.5281,30.0
24.7854,4.0
25.0428,6.0
25.3001,8.0
25.5575,6.0
25.815,22.0
26.0724,35.0
26.3299,8.0
26.5875,9.0
26.8451,6.0
27.1027,18.0
27.3603,38.0
27.618,7.0
27.8758,2.0
28.1335,6.0
28.3913,6.0
28.6492,12.0
28.9071,49.0
29.165,8.0
29.423,6.0
29.681,6.0
29.9391,5.0
30.1972,8.0
30.4553,10.0
30.7135,20.0
30.9717,121.0
31.23,4.0
31.4883,4.0
31.7467,8.0
32.0051,10.0
32.2635,11.0
32.522,71.0
32.7806,77.0
33.0392,14.0
33.2978,26.0
33.5565,26.0
33.8153,10.0
34.0741,8.0
34.3329,5.0
34.5918,7.0
34.8507,15.0
35.1097,80.0
35.3688,68.0
35.6279,22.0
35.887,26.0
36.1462,14.0
36.4055,22.0
36.6648,21.0
36.9241,11.0
37.1836,7.0
37.443,6.0
37.7026,7.0
37.9621,11.0
38.2218,57.0
38.4815,11.0
38.7412,5.0
39.0011,8.0
39.2609,9.0
39.5209,37.0
39.7809,59.0
40.0409,34.0
40.3011,23.0
40.5612,3.0
40.8215,8.0
41.0818,3.0
41.3421,5.0
41.6026,6.0
41.8631,5.0
42.1236,5.0
42.3843,7.0
42.645,9.0
42.9057,25.0
43.1665,11.0
43.4274,8.0
43.6884,5.0
43.9494,29.0
44.2105,27.0
44.4717,12.0
44.733,27.0
44.9943,13.0
45.2557,28.0
45.5171,16.0
45.7786,6.0
46.0403,10.0
46.3019,16.0
46.5637,20.0
46.8255,5.0
47.0874,17.0
47.3494,62.0
47.6115,15.0
47.8736,7.0
48.1358,10.0
48.3981,5.0
48.6605,21.0
48.923,4.0
49.1855,13.0
49.4481,13.0
49.7108,15.0
49.9736,13.0
50.2365,12.0
50.4994,11.0
50.7625,5.0
51.0256,7.0
51.2888,10.0
51.5521,7.0
51.8155,4.0
52.079,4.0
52.3426,11.0
52.6062,11.0
52.87,8.0
53.1338,10.0
53.3978,25.0
53.6618,9.0
53.9259,7.0
54.1901,6.0
54.4545,10.0
54.7189,12.0
54.9834,8.0
55.248,7.0
55.5127,9.0
55.7775,39.0
56.0424,32.0
56.3074,37.0
56.5725,36.0
56.8377,11.0
57.103,8.0
57.3685,19.0
57.634,41.0
57.8996,16.0
58.1654,17.0
58.4312,31.0
58.6972,26.0
58.9632,10.0
59.2294,5.0
59.4957,12.0
59.7621,15.0
60.0286,8.0
60.2952,6.0
60.562,15.0
60.8288,41.0
61.0958,21.0
61.3629,13.0
61.6301,8.0
61.8974,8.0
62.1649,5.0
62.4325,9.0
62.7002,7.0
62.968,5.0
63.2359,7.0
63.504,12.0
63.7722,15.0
64.0405,25.0
64.309,18.0
64.5776,9.0
64.8463,10.0
65.1151,6.0
65.3841,9.0
65.6532,3.0
65.9225,4.0
66.1919,6.0
66.4614,4.0
66.7311,17.0
67.0009,13.0
67.2708,6.0
67.5409,6.0
67.8112,3.0
68.0815,7.0
68.3521,18.0
68.6227,10.0
68.8935,8.0
69.1645,9.0
69.4356,7.0
69.7069,15.0
69.9783,15.0
70.2499,17.0
70.5216,12.0
70.7935,12.0
71.0656,17.0
71.3378,8.0
71.6102,7.0
71.8827,9.0
72.1554,9.0
72.4283,8.0
72.7013,9.0
72.9745,13.0
73.2479,10.0
73.5214,7.0
73.7951,9.0
74.069,21.0
74.3431,14.0
74.6173,15.0
74.8917,6.0
75.1663,7.0
75.4411,4.0
75.7161,8.0
75.9912,11.0
76.2665,8.0
76.5421,12.0
76.8178,5.0
77.0937,10.0
77.3698,10.0
77.6461,13.0
77.9226,11.0
78.1992,16.0
78.4761,13.0
78.7532,7.0
79.0305,5.0
79.308,9.0
79.5857,18.0
79.8636,13.0
80.1417,17.0
80.4201,8.0
80.6986,9.0
80.9774,13.0
81.2564,7.0
81.5356,8.0
81.815,12.0
82.0947,7.0
82.3746,7.0
82.6547,7.0
82.935,9.0
83.2156,9.0
83.4964,8.0
83.6241,18.0